Jaz Data File
++++++++++++++++++++++++++++++++++++
Date: Wed Dec 03 21:11:29 2014
User: jaz
Dark Spectrum Present: Yes
Reference Spectrum Present: Yes
Processed Spectrum Present: No
Spectrometers: JAZA2310
Integration Time (usec): 709000 (JAZA2310)
Spectra Averaged: 2 (JAZA2310)
Boxcar Smoothing: 0 (JAZA2310)
Correct for Electrical Dark: Yes (JAZA2310)
Strobe/Lamp Enabled: No (JAZA2310)
Correct for Detector Non-linearity: Yes (JAZA2310)
Correct for Stray Light: No (JAZA2310)
Number of Pixels in Processed Spectrum: 2048
>>>>>Begin Processed Spectral Data<<<<<
W	D	R	S
188.301102	0.000000	0.000000	0.000000
188.764923	0.000000	0.000000	0.000000
189.228699	-120.074440	-79.558281	-127.803719
189.692459	-104.658340	-135.748077	-97.965668
190.156158	-103.663933	-75.582191	-79.324715
190.619812	-48.001945	-65.146690	-45.786110
191.083435	41.344078	21.744568	75.786278
191.547043	4.132927	0.406287	-25.920546
192.010590	35.887985	-16.471685	-22.196424
192.474091	35.887985	15.790623	55.954689
192.937561	2.147754	8.843328	24.954731
193.401001	38.864296	58.944962	47.276443
193.864410	68.617462	56.961483	104.282562
194.327759	78.531982	63.903164	50.995827
194.791077	49.775436	22.737104	50.995827
195.254349	-1.326593	41.587681	5.106188
195.717575	-13.240138	16.286674	52.235481
196.180786	50.271336	11.324502	-29.644766
196.643951	9.095837	19.760120	24.954731
197.107071	6.118168	3.880397	0.142943
197.570145	45.807808	35.139431	21.233585
198.033203	14.058195	10.332180	-32.127800
198.496216	6.118168	31.666885	-8.543605
198.959167	7.607089	-47.261253	44.796638
199.422089	37.872166	-24.912354	16.271830
199.884979	-20.687346	-38.320724	2.624618
200.347855	17.035599	5.865647	38.596668
200.810654	16.043238	39.603897	48.516174
201.273422	3.140214	-15.478643	-13.507864
201.736160	66.138672	79.766876	99.327698
202.198853	25.470404	23.233366	33.636364
202.661514	25.966509	21.248697	13.790729
203.124130	-26.149302	-14.982195	-15.990082
203.586700	43.824028	51.010662	28.675510
204.049240	22.493423	51.010662	69.589531
204.511734	-10.757901	16.782854	-30.886271
204.974197	6.118168	41.091709	-7.302437
205.436615	-38.067879	2.887950	-50.753521
205.899002	-5.297372	9.835675	-4.820584
206.361343	-32.108219	-4.557353	50.995827
206.823654	-44.524971	-6.046445	34.876377
207.285919	-1.326728	75.801239	16.271830
207.748123	-50.982372	-11.507178	2.624618
208.210327	-19.197882	-13.492743	-11.025614
208.672485	-2.815469	-13.492877	0.142943
209.134583	27.950748	49.523098	17.512207
209.596649	-21.680342	-15.478643	-1.097798
210.058670	-17.211857	-16.968147	-24.679010
210.520676	-58.931332	-25.408886	-9.784529
210.982635	-15.226031	-11.010493	-2.338701
211.444534	-33.101410	-9.521411	44.796638
211.906403	36.880016	62.415783	39.836716
212.368240	32.415752	56.961483	11.309523
212.830048	-35.087975	-3.068298	-25.920546
213.291779	31.423512	51.506554	-12.266726
213.753494	-22.673353	-26.898506	-39.577271
214.215179	1.155143	-18.954031	7.587654
214.676819	-44.524971	-37.327179	-117.855850
215.138412	-68.372047	-27.395189	-63.174099
215.599960	-11.254448	33.651340	-15.990082
216.061493	-18.204927	23.729219	-8.543605
216.522949	16.539419	11.324502	-42.060726
216.984406	-11.750864	53.490208	12.550273
217.445801	-33.101410	25.217697	28.675510
217.907166	18.027807	38.115780	-20.955105
218.368484	3.140484	-14.982195	-2.338701
218.829773	2.147889	45.059647	39.836716
219.291031	-31.115047	-40.307465	-12.266726
219.752228	-17.211857	-22.926134	-3.579629
220.213379	14.058330	34.643406	16.271830
220.674500	-51.976021	-21.436615	-63.174099
221.135574	-26.149302	-9.025014	-30.886135
221.596634	-37.074471	-22.429623	10.069016
222.057648	-25.156094	-10.017813	-2.338701
222.518600	-54.956917	-35.837425	-54.479458
222.979553	-53.466450	-36.830677	-59.447609
223.440430	26.958839	15.294435	41.076736
223.901276	6.614434	18.767941	-38.335716
224.362076	3.636775	-27.891607	-28.403288
224.822845	-65.887474	-57.196880	-59.447609
225.283569	10.088449	-15.478778	-24.679010
225.744278	-57.937565	-23.422783	22.473993
226.204910	21.997292	4.376682	-24.679010
226.665512	-16.715528	-1.082815	-22.196291
227.126114	3.140484	-17.464476	-11.025614
227.586639	18.027807	-12.500019	-4.820584
228.047119	16.043102	7.850829	-8.543605
228.507568	10.088449	54.977943	32.396191
228.967972	-8.772159	-37.824085	11.309523
229.428345	1.651586	-15.975095	-38.335716
229.888687	-37.074471	-2.571820	-11.025614
230.348984	-40.054611	-5.053713	6.346934
230.809219	-9.765089	7.354574	7.587654
231.269440	-14.729586	-4.060997	-23.437773
231.729614	-45.021538	-12.003462	-20.955105
232.189758	24.478050	27.202230	10.069016
232.649841	-1.326593	40.595730	15.031157
233.109894	-1.326593	-11.010763	24.954731
233.569901	31.423512	23.729219	-1.097798
234.029892	33.903740	31.667021	-7.302437
234.489822	2.643919	23.729486	8.828348
234.949707	-35.584457	11.324772	-20.955105
235.409561	38.368164	37.123768	46.036423
235.869385	-9.268824	20.256273	64.631805
236.329163	-25.156094	9.339437	8.828213
236.788895	-38.067879	-13.989178	-38.335716
237.248581	27.454660	6.858179	11.309523
237.708237	-16.715393	19.759987	22.473993
238.167847	-31.611496	-26.898640	31.155989
238.627441	-4.801145	29.682772	-14.749026
239.086960	-17.211857	3.383973	-20.955105
239.546463	-28.135630	36.627625	41.076736
240.005920	-3.808299	14.798242	2.624618
240.465332	-33.598145	-40.803993	-40.819122
240.924698	-31.611631	20.256273	-40.819122
241.384033	-21.680475	-36.830544	-32.127800
241.843338	-39.557957	-7.039195	-42.060726
242.302597	-54.956783	-5.550212	-39.577404
242.761810	45.807808	42.083649	53.475239
243.220993	-11.254313	24.721586	-34.610809
243.680115	-5.793874	28.194538	42.316727
244.139221	-35.087837	-3.564511	-47.027958
244.598282	-19.694365	-3.564511	0.142943
245.057297	-30.121893	-15.975095	-20.955105
245.516266	7.607089	-48.751431	21.233585
245.975189	-45.518238	-34.844189	-70.627663
246.434082	-21.183706	-37.327446	-29.644766
246.892944	7.607089	-21.436615	-2.338701
247.351761	-10.757901	-11.010629	22.473993
247.810516	73.079285	90.174995	72.068306
248.269272	9.095837	27.202230	18.752827
248.727951	69.608940	36.131611	86.938545
249.186600	-69.862900	7.850829	-49.511730
249.645218	-35.087975	-13.989313	-15.990082
250.103790	18.524244	7.354574	10.069016
250.562317	-60.421940	1.895216	-32.127800
251.020813	-74.832222	12.317078	1.383928
251.479279	-29.625320	-52.725689	-29.644766
251.937668	-48.001945	-14.982330	-55.721489
252.396057	-33.598011	-8.528485	-1.097798
252.854385	-46.511787	-6.542953	44.796638
253.312683	-12.247284	48.531147	-1.097798
253.770920	-45.021538	-42.294003	-7.302437
254.229126	-53.963089	-19.450512	-11.025614
254.687302	-18.204927	-35.340805	2.624618
255.145432	-70.359673	-26.401960	-40.819122
255.603500	-23.666519	-48.254700	-45.786110
256.061584	2.147754	23.729486	43.556698
256.519592	-22.673353	-16.471685	-6.061564
256.977570	-12.247284	-13.989313	-101.694633
257.435455	-39.061306	-12.003462	-7.302437
257.893372	-8.275902	4.376682	-44.544289
258.351196	-12.247284	-19.450512	73.307793
258.808990	-36.577976	39.107639	22.473993
259.266754	-37.571239	-25.905420	-59.447609
259.724487	90.922852	118.912331	99.327698
260.182190	-15.722346	27.698320	-11.025614
260.639832	-22.176981	-15.975095	-63.173962
261.097443	-46.511787	-35.837425	-15.990082
261.554993	-8.275902	0.406287	-18.472540
262.012512	28.446966	56.961483	50.995827
262.469971	8.103612	-42.790817	-29.644766
262.927429	-0.333670	30.178703	-3.579629
263.384827	-45.518238	-31.367727	-6.061564
263.842194	-17.211857	17.279301	-29.644766
264.299530	-40.551270	-42.790951	-53.237453
264.756805	-41.047935	-11.010629	27.435368
265.214050	-10.758036	21.248697	3.865416
265.671234	92.904945	62.415649	81.982262
266.128387	-30.121893	12.813292	11.309523
266.585510	-55.950363	-72.103569	-40.819122
267.042572	-1.326593	3.383973	54.714977
267.499573	-13.240138	27.202501	-27.161837
267.956604	17.531504	54.481949	43.556564
268.413574	88.444992	50.514900	67.110786
268.870483	-0.830265	66.877800	52.235481
269.327362	-27.142389	-19.946997	-34.610943
269.784180	65.146858	93.148605	37.356598
270.240936	13.561991	57.457325	8.828213
270.697693	-26.149302	-1.579146	-14.749026
271.154419	-15.226031	-46.267826	15.031157
271.611053	-71.850716	-40.307327	-44.544289
272.067688	6.614434	34.147373	44.796505
272.524292	1.651451	32.163071	27.435368
272.980835	26.958569	-3.564646	52.235481
273.437347	14.554529	19.263966	41.076736
273.893799	-13.240138	18.767672	-11.025614
274.350250	-41.544739	-6.046445	-56.963547
274.806610	-68.372047	-51.235409	-83.052345
275.262939	28.943045	77.288422	0.142943
275.719238	-14.729450	21.248564	19.993153
276.175507	-6.786754	6.361915	22.473993
276.631714	6.614434	58.449131	73.307655
277.087891	-30.618467	5.865647	-24.679010
277.544067	-49.492138	-34.844055	-4.820449
278.000122	-84.772560	-27.395189	-50.753521
278.456177	-17.211857	20.256273	-24.679010
278.912201	22.493423	1.895216	-38.335716
279.368164	-31.611496	-58.190365	-44.544289
279.824097	-28.632191	-19.946997	-68.142990
280.279968	-33.598145	-28.884859	12.550273
280.735840	-57.937565	-32.857635	-3.579629
281.191620	-28.632055	-22.429623	15.031292
281.647400	-25.652763	-7.535710	-60.689877
282.103149	-5.793874	35.139568	28.675510
282.558838	-0.830265	-13.989178	-12.266726
283.014465	-5.793738	-16.968147	18.752827
283.470062	-41.047935	-10.514083	-3.579629
283.925629	-31.115047	20.256273	16.271830
284.381134	-40.054611	-6.542953	31.155989
284.836639	-4.304652	-0.090031	3.865416
285.292053	-11.254313	14.302044	27.435368
285.747467	-68.372047	-55.209702	-23.437773
286.202820	-18.701403	-42.294140	-35.852417
286.658142	5.125758	-10.017813	2.624618
287.113434	-23.170002	-17.960945	-51.995472
287.568634	-11.254313	4.872963	-2.338701
288.023804	28.446966	37.619778	46.036423
288.478973	-75.329178	-16.471685	-44.544289
288.934113	-20.687346	-13.492877	-23.437773
289.389130	-24.659565	-22.429623	-4.820449
289.844208	-28.135359	-41.300793	-39.577404
290.299164	-39.061169	3.384243	13.790729
290.754089	-30.618603	-26.401960	-18.472540
291.208984	-36.081348	-3.068298	38.596668
291.663879	21.501154	34.147373	-22.196424
292.118683	-34.094749	-19.947268	-38.335716
292.573456	-26.645844	43.571671	11.309523
293.028198	-36.081215	2.887680	15.031292
293.482849	-37.074604	-25.905420	-50.753521
293.937561	-64.893593	-9.521411	1.383928
294.392151	76.053467	119.902985	109.237144
294.846741	-14.233008	11.820724	-23.437773
295.301239	-51.479259	-27.891607	-83.052345
295.755737	-48.995541	0.406152	-8.543605
296.210175	-14.729586	-29.381424	-13.507729
296.664581	-12.247149	1.895216	-1.097798
297.118958	-36.081348	-61.171581	-29.644766
297.573242	-41.544601	-32.857635	-43.302494
298.027557	-6.290244	-0.586489	-8.543605
298.481812	-45.021538	1.398911	19.993153
298.935974	5.621898	-0.090166	10.069016
299.390137	43.328075	7.850829	69.589531
299.844238	-12.247284	-35.837425	22.473993
300.298340	-37.571106	-5.053713	13.790729
300.752350	-48.995270	-38.320858	-53.237453
301.206360	34.399776	-28.388298	-13.507864
301.660278	3.140484	-5.053713	-50.753521
302.114197	-43.034634	-36.334049	-3.579629
302.568054	-67.875145	-23.422783	-9.784529
303.021881	-16.218935	-24.415827	-38.335716
303.475677	4.629210	-3.564511	17.512342
303.929413	-16.715528	1.398911	13.790729
304.383118	69.609077	103.554398	41.076736
304.836761	-18.701267	-17.961081	31.155989
305.290375	23.485813	73.818329	36.116634
305.743958	-54.956783	-4.557353	-14.749026
306.197510	-31.115047	-18.954031	-30.886135
306.650970	0.162515	53.986214	63.392273
307.104431	-11.254313	11.820724	5.106188
307.557800	47.791653	14.798242	64.631935
308.011169	-65.887474	-25.408886	-32.127800
308.464508	-1.326593	-12.003462	-19.713810
308.917755	-26.645844	-16.968012	-18.472540
309.371063	-16.715258	-31.367727	15.031292
309.824219	7.607089	-4.060997	60.913136
310.277374	-24.163040	-54.712784	12.550273
310.730499	-27.142389	-43.287498	-17.231434
311.183563	30.927454	39.603626	57.194374
311.636597	-19.694365	15.294435	-38.335716
312.089569	-31.115047	-24.415691	-20.955105
312.542511	117.678230	116.435349	147.620789
312.995422	-29.625185	-48.751431	-23.437773
313.448273	23.485813	13.805707	-3.579629
313.901093	-47.008503	12.813292	-2.338701
314.353882	26.462473	3.384243	-2.338701
314.806580	-3.808299	-7.039195	-2.338701
315.259308	-36.081348	-11.507178	5.106188
315.711975	-29.625185	-54.712784	-40.819122
316.164581	24.974297	30.178703	98.088882
316.617126	-7.779515	-3.564646	-59.447609
317.069672	-23.666519	-11.010763	-7.302437
317.522156	-8.772159	11.324502	2.624618
317.974579	-44.028145	-31.864449	11.309523
318.427002	-26.645708	1.895351	15.031292
318.879333	16.043102	55.969654	65.871307
319.331665	-48.001945	-11.507178	-17.231434
319.783936	-34.591358	-53.719227	-44.544289
320.236176	-64.893723	-39.314018	5.106188
320.688354	-9.765224	-9.521411	-20.955105
321.140503	-52.472645	-10.514083	-9.784529
321.592651	13.065784	35.635323	46.036423
322.044647	-5.297372	-17.961081	-12.266726
322.496704	-44.028145	-38.320724	-15.990082
322.948639	-63.403137	-17.464611	-39.577271
323.400604	-1.326593	33.651340	19.993153
323.852509	4.133197	85.218971	86.938545
324.304352	-16.715258	-23.422783	-22.196291
324.756165	1.155143	37.123768	6.346934
325.207916	-42.041275	-25.905420	-50.753521
325.659668	14.058330	-0.090031	-3.579629
326.111328	7.607089	-2.571685	64.631935
326.562988	-6.786619	-44.777710	-20.955105
327.014557	-37.571373	-0.090166	-12.266726
327.466156	-7.282862	20.752420	74.546982
327.917664	-22.673353	19.263830	10.069016
328.369110	-42.537952	21.744568	32.396191
328.820557	-22.673353	12.316943	34.876377
329.271942	-34.094749	-12.499749	0.142943
329.723297	-38.564522	3.383973	8.828213
330.174561	-20.687346	14.301908	-40.819122
330.625854	-4.304923	-3.068298	18.752827
331.077026	-64.893593	-19.450512	-37.094051
331.528229	-14.233008	16.782854	50.995827
331.979370	8.599726	-14.982195	-32.127800
332.430450	4.629210	20.256273	12.550273
332.881500	-55.453571	-17.464611	-2.338836
333.332489	-9.765224	18.767941	-12.266726
333.783478	39.360016	86.210045	41.076736
334.234406	-67.378120	4.872963	-45.785973
334.685303	-10.261493	14.302044	-20.955105
335.136078	-45.021538	-51.235275	-55.721489
335.586914	-19.197882	-4.060997	49.755878
336.037659	38.864025	63.407104	65.871307
336.488342	-26.645844	-5.550212	6.346934
336.939026	-31.611767	-32.857635	1.383928
337.389648	-39.061306	-10.017813	-18.472540
337.840240	-25.156094	-6.046580	55.954823
338.290771	-41.544601	6.361915	-3.579629
338.741272	17.035599	42.083649	17.512207
339.191681	32.911797	62.911446	46.036423
339.642120	4.629479	-0.090031	-11.025614
340.092468	32.911797	22.737104	-33.369225
340.542816	-45.021538	-1.082815	-35.852417
340.993103	-17.708323	-17.960945	12.550138
341.443329	-16.218935	-35.340805	-4.820449
341.893555	-66.384354	-19.947132	12.550273
342.343689	-44.524837	-20.940117	15.031292
342.793793	-36.577839	-15.975230	29.915897
343.243866	-35.087975	-17.961081	-59.447609
343.693878	-18.204792	-32.361042	-1.097798
344.143890	-72.844444	1.895216	-51.995605
344.593842	27.950884	37.619778	136.479736
345.043732	-36.577976	27.202230	70.829063
345.493591	32.415752	33.155300	49.755878
345.943359	-3.311949	4.376682	-1.097798
346.393158	-19.197746	-15.975230	6.346799
346.842896	-41.544601	28.690620	27.435368
347.292542	-33.101410	15.294435	2.624618
347.742218	-2.815739	47.539310	-27.161837
348.191803	-48.001945	9.339437	-3.579629
348.641357	-55.453571	22.737104	-19.713810
349.090881	-38.564522	11.324502	26.194929
349.540314	-44.524837	38.115780	24.954731
349.989777	-16.218935	58.944962	44.796505
350.439148	-67.378258	4.376682	16.271830
350.888489	-70.856598	6.361915	-3.579629
351.337799	-16.218935	97.608467	75.786278
351.787048	-74.335274	23.233095	7.587654
352.236267	-43.531452	49.522827	38.596668
352.685425	-38.067879	9.835945	43.556564
353.134552	-70.856728	-0.090166	-12.266726
353.583649	-30.618603	87.696968	55.954689
354.032684	7.607089	25.713802	38.596806
354.481659	21.997292	110.986084	75.786278
354.930634	-5.297372	115.939987	17.512207
355.379517	6.118168	131.790009	77.025551
355.828430	-13.736707	98.103706	68.350235
356.277222	-56.447289	112.967781	-61.931908
356.726013	-25.652763	73.818329	32.396191
357.174774	-14.233008	122.874863	50.995827
357.623444	-16.715393	140.703842	94.372421
358.072113	1.155143	136.247025	5.106188
358.520721	-59.925110	133.275803	62.152851
358.969299	-52.969543	158.527451	62.152851
359.417786	-32.108219	138.227890	109.237144
359.866302	24.478050	202.569138	126.574753
360.314697	-30.618467	109.499741	36.116634
360.763123	-19.694231	157.042282	115.429680
361.211456	-2.319128	194.653778	85.699615
361.659760	-9.268689	186.242752	110.475731
362.108032	-11.254313	217.902145	126.574753
362.556244	-71.353516	181.789398	68.350235
363.004456	-47.008366	208.504959	37.356598
363.452576	-1.326593	262.889313	117.906570
363.900696	-60.421940	229.769836	90.655602
364.348663	-7.779515	364.116425	177.320633
364.796722	-48.001945	392.233643	189.691345
365.244690	-4.304652	516.886292	262.627533
365.692596	-34.591358	496.701813	207.006058
366.140472	-24.659565	453.851074	188.454224
366.588287	1.155143	475.033661	153.809540
367.036102	-31.115047	400.617249	244.092545
367.483826	-46.014942	377.930054	167.422302
367.931549	-15.722346	397.165253	124.098213
368.379181	-9.268554	397.658661	207.006058
368.826843	-63.402866	360.169312	157.522476
369.274384	-63.403137	309.819885	176.083405
369.721924	-16.218935	372.996918	235.440994
370.169403	16.539419	417.380615	274.981018
370.616821	-26.645844	348.819427	197.112381
371.064270	-12.247284	358.195526	173.608902
371.511566	-41.544601	362.636261	194.638718
371.958923	6.118168	343.390472	247.800034
372.406158	-9.765224	337.467651	155.047211
372.853424	-26.645708	310.313690	125.336487
373.300568	-13.240273	360.662689	218.134277
373.747711	10.584682	421.324463	207.005920
374.194794	-19.197746	327.594940	88.177589
374.641846	-43.034634	412.943787	174.846161
375.088898	-50.982372	387.301849	176.083405
375.535828	-3.808299	389.767914	203.295990
375.982758	-31.611631	386.808685	168.659698
376.429596	13.562261	445.474518	172.371735
376.876465	-18.204927	333.025085	204.532791
377.323242	-14.233144	258.441772	172.371735
377.769989	-19.197746	214.440063	150.096375
378.216675	-13.736571	124.360878	86.938545
378.663330	-60.421940	52.994335	-20.955105
379.109985	-25.156229	37.619778	-8.543469
379.556519	54.238533	100.581573	68.350235
380.003052	-34.591358	69.356689	-11.025614
380.449524	-11.750729	48.035229	33.636364
380.895996	-48.002083	31.171099	2.624618
381.342377	-32.108356	61.424046	-18.472540
381.788727	-58.434376	72.331062	29.915762
382.235046	-3.808299	112.967781	15.031292
382.681274	25.470135	175.850861	46.036423
383.127533	-74.832222	114.949135	60.913136
383.573669	-35.584728	203.063797	100.566483
384.019836	-10.261493	258.441772	121.621582
384.465912	-35.088108	250.039291	103.043983
384.911957	-31.611631	276.725372	167.422302
385.357971	-57.937702	204.052948	101.805107
385.803925	-47.505222	190.200897	94.372421
386.249847	-51.479259	235.208801	132.765503
386.695679	-48.995403	281.665894	174.846161
387.141541	-59.428013	272.772491	134.003601
387.587311	-4.304787	431.675598	207.005920
388.033051	3.636775	427.732513	202.059418
388.478729	-44.028145	428.225403	216.897873
388.924408	-44.524700	472.570892	255.214081
389.369995	5.621898	439.561279	216.897873
389.815552	-57.440758	417.873688	229.260620
390.261078	5.621898	475.526306	226.788239
390.706543	29.935324	492.270325	276.216370
391.152008	-40.054611	491.777771	289.802032
391.597351	-63.403000	559.695618	357.687195
392.042725	-22.176846	644.740234	336.712280
392.487976	1.155143	661.932617	384.820679
392.933289	-70.856728	663.406128	384.820679
393.378479	-24.163040	784.608276	386.053772
393.823639	17.035599	889.444641	495.702087
394.268768	-54.956783	795.393311	429.196289
394.713837	11.577000	818.427917	500.625824
395.158905	-21.183840	810.096985	504.318512
395.603851	-60.918636	835.576782	505.549164
396.048798	-49.989017	902.660889	557.221313
396.493683	-12.743574	1001.456055	633.425049
396.938568	-19.694365	1065.453491	705.861267
397.383392	32.415752	1104.507813	649.392395
397.828156	-62.906143	1022.468933	626.054504
398.272888	-46.014942	1009.764099	599.021240
398.717560	-26.149166	959.411438	637.110291
399.162201	-30.121893	1060.081909	630.968445
399.606781	-49.989017	1096.698853	671.494568
400.051361	-63.899857	1068.383179	693.589539
400.495819	-12.743710	1147.443604	745.116211
400.940308	-60.918636	1170.364990	711.996277
401.384705	-16.715528	1202.052734	738.984131
401.829102	16.539419	1237.137329	729.171570
402.273438	-28.135494	1338.401123	800.279846
402.717682	-70.359810	1358.831787	851.726440
403.161926	-52.472645	1374.394409	873.763367
403.606110	-27.142389	1439.529175	916.593018
404.050293	-43.531319	1547.318848	998.508728
404.494385	-53.963223	1582.245361	982.621948
404.938446	-48.498672	1720.347412	1171.812744
405.382477	-23.169867	1799.225952	1208.373901
405.826447	-49.492138	1883.827148	1233.955933
406.270386	-21.183706	1837.428223	1154.744751
406.714233	18.524244	1730.998291	1184.001953
407.158081	-25.652628	1738.743408	1144.989868
407.601868	-29.625185	1785.681519	1171.812744
408.045624	-2.815739	1933.580688	1300.915161
408.489319	9.095972	2032.998657	1399.419556
408.933014	29.935188	2095.678711	1376.325073
409.376617	-48.995403	2079.771729	1353.223511
409.820190	-22.176981	2142.417480	1392.127441
410.263702	17.531773	2250.735352	1580.291016
410.707184	-26.149302	2381.982422	1593.627197
411.150635	-41.544601	2397.354492	1667.543213
411.594025	-15.226031	2352.192871	1596.052124
412.037384	-34.094749	2282.964355	1610.597656
412.480682	-43.034634	2334.890625	1673.598755
412.923981	-32.604813	2608.448975	1765.588623
413.367126	-54.956783	2856.826172	1948.051636
413.810333	-63.403000	3020.142578	2054.204346
414.253479	-12.247284	3053.535645	2108.435303
414.696533	-51.976021	3005.350342	2136.140381
415.139587	-54.956783	2952.366211	2056.614990
415.582581	46.799942	3011.553223	2079.516113
416.025543	-35.584728	2959.528320	2091.567139
416.468414	-56.447289	3209.855469	2192.727295
416.911285	-53.466450	3445.777344	2419.911865
417.354065	63.163860	3856.866211	2648.918457
417.796875	-95.211723	3765.968750	2507.506104
418.239594	-57.440758	3824.682617	2547.075684
418.682281	-2.815469	3863.964355	2641.732910
419.124908	-46.015079	3889.040527	2714.757080
419.567505	35.391964	4200.349121	2814.026367
420.010071	-51.479259	4295.123535	2906.027100
420.452545	-42.538090	4507.951660	3065.921387
420.895020	-68.868950	4412.417480	2987.200439
421.337372	-26.645844	4247.510742	2962.139648
421.779785	71.591995	4120.126953	2825.979980
422.222107	67.130066	4072.437744	2803.267334
422.664368	0.658696	4152.223145	2802.071289
423.106628	-6.290244	4442.074707	2960.946045
423.548798	-44.524971	4715.681641	3133.856689
423.990967	-40.551270	5101.938965	3394.439941
424.433044	-4.801145	5237.106934	3688.724121
424.875092	-26.149166	5123.932617	3487.087891
425.317078	-3.311949	4999.406738	3495.398682
425.759064	-1.822791	4834.416016	3434.834961
426.200989	-6.290379	4629.252441	3295.759521
426.642853	-21.183975	4487.251953	3121.941650
427.084686	13.562261	4402.530273	3137.431152
427.526459	-4.801145	4420.421387	3174.357422
427.968201	-19.694500	4379.456055	3213.650635
428.409912	-56.447155	4488.192383	3250.548584
428.851563	-21.680475	4609.514648	3346.895020
429.293121	-14.729586	4582.722656	3364.727295
429.734711	-47.008503	4846.141602	3487.087891
430.176239	-14.233008	4962.866699	3582.024414
430.617706	-19.197746	4928.658203	3583.210449
431.059113	-48.001945	5017.204102	3638.944580
431.500488	-64.893723	4795.477539	3519.139160
431.941833	-49.492279	4609.044922	3419.392090
432.383087	-63.403137	4426.070313	3199.364014
432.824341	-9.765224	4304.549316	3200.554443
433.265533	-55.950363	4280.982422	3081.419678
433.706726	-46.511787	3980.305664	3071.882568
434.147827	-61.415607	3989.286621	2997.938721
434.588867	-32.108219	4175.816406	3155.300049
435.029877	-37.571239	4646.167969	3400.381348
435.470825	-63.899994	5531.693848	3957.363770
435.911804	-6.786619	6464.391602	4616.080078
436.352661	-14.729450	7176.381836	5186.832031
436.793518	-6.786619	6678.918457	4953.949707
437.234283	36.384003	5975.240723	4362.015137
437.675049	-52.969681	5192.691895	3882.875732
438.115723	-43.034771	4750.423828	3660.281250
438.556396	3.636775	4503.248047	3580.837891
438.997040	-13.736571	4465.135742	3528.633301
439.437561	38.368164	4501.366211	3489.462158
439.878113	-79.802246	4462.312988	3455.026855
440.318573	-35.584591	4354.021973	3308.843506
440.759033	-34.094883	4444.428223	3527.446533
441.199341	-11.750729	4586.013184	3603.373291
441.639709	-59.924973	4547.930176	3583.210449
442.079956	-19.197882	4679.051270	3685.169434
442.520264	-8.275902	4753.240234	3705.312012
442.960510	-32.604946	5103.343262	3944.361816
443.400604	1.155143	5314.676270	4156.927246
443.840759	-66.881233	5502.780273	4357.304688
444.280762	-49.492138	5666.837402	4352.593750
444.720825	-42.041409	5698.970703	4437.354004
445.160767	12.073490	5998.002441	4609.030762
445.600739	-60.421806	6285.184082	4881.297852
446.040558	-15.722346	6343.096191	4887.158691
446.480438	-30.121893	5896.237793	4726.466797
446.920258	-13.240138	5414.133301	4393.804688
447.359955	-34.591358	5007.837891	4056.601318
447.799713	-39.061169	4960.992676	4162.826660
448.239319	-44.028145	4925.377930	3940.815918
448.678955	-35.087975	5056.536621	4132.149414
449.118500	-18.204927	5086.495117	4238.301270
449.558014	-9.268689	4960.055176	3990.453125
449.997498	-80.299385	4835.823242	3959.728027
450.436951	-68.371910	4857.398438	3993.997803
450.876343	-31.115047	4901.472168	4048.335205
451.315674	-15.722346	5077.133789	4167.544434
451.754974	-49.492138	5040.618164	4122.708984
452.194183	-23.666519	5240.846191	4379.677246
452.633392	-47.008366	5304.398926	4259.519043
453.072510	-33.101410	5359.979004	4504.409668
453.511688	-48.001945	5380.990234	4522.049316
453.950684	4.132927	5414.599121	4524.400879
454.389740	1.651451	5295.522461	4373.790039
454.828735	10.584682	5313.273926	4359.660156
455.267639	-40.054478	5387.525391	4437.354004
455.706543	-13.736571	5538.220703	4522.049316
456.145325	41.344078	5784.151367	4791.005371
456.584137	50.767368	5900.421387	4958.635254
457.022858	-40.551270	5944.110352	4904.738770
457.461578	0.658831	6147.011230	5086.246582
457.900208	-62.906143	6400.055664	5166.955078
458.338867	-11.254448	6641.033691	5377.240723
458.777405	-64.893723	6929.967773	5651.220215
459.215912	-24.163040	6987.123047	5688.479492
459.654388	-9.268689	6923.513184	5788.557129
460.092773	-48.995541	6415.794434	5261.630371
460.531189	-30.618467	6140.053223	5109.645996
460.969513	-30.121758	6333.831055	5213.717773
461.407806	-44.524837	6557.367676	5490.406250
461.846008	-45.021538	6689.080566	5613.949219
462.284241	-43.531452	6277.768555	5299.011230
462.722351	-43.034771	6044.442871	5267.472168
463.160461	-10.757901	5983.602051	5046.456055
463.598541	-7.283133	6007.291992	5230.080566
464.036530	-3.808299	6181.337402	5379.574707
464.474518	-29.128754	6065.799316	5299.011230
464.912384	-56.944092	6060.691406	5284.994629
465.350281	-24.659700	5923.662598	5136.549805
465.788086	-44.028145	5919.014648	5144.736816
466.225891	-78.311142	6117.780762	5190.338867
466.663605	-46.015079	6412.091797	5461.250000
467.101318	-21.183840	6704.784668	5772.271484
467.539001	-63.403137	6919.825195	5990.788574
467.976563	-7.779515	7511.391602	6350.261230
468.414124	3.140484	7471.456543	6638.246582
468.851593	-20.190853	7471.456543	6620.916992
469.289063	-15.226031	7619.658691	6809.105957
469.726440	-42.041275	7731.962402	6833.331055
470.163849	-22.673353	7731.503418	6867.930664
470.601135	-25.652763	7830.890625	6998.168945
471.038422	-51.479126	7771.816895	6766.412598
471.475677	-8.275767	7831.807129	7007.384766
471.912811	-19.694365	8028.985352	7086.838867
472.350006	-54.459866	8661.553711	7572.862793
472.787048	-30.121893	8984.682617	7784.856445
473.224121	-38.067879	9078.162109	7866.125000
473.661072	-70.359673	8961.530273	7885.577637
474.098053	-11.750864	8712.051758	7978.217285
474.534943	-42.041275	8403.320313	7517.803223
474.971802	-57.937702	8067.379883	7212.254883
475.408630	-53.963089	7757.159180	6994.712402
475.845367	-80.796249	7439.315918	6920.963379
476.282104	-33.101543	7417.271973	6839.098145
476.718750	-50.485760	7625.621094	6917.505371
477.155426	61.180523	8297.972656	7454.684570
477.591949	-35.087975	8831.621094	7906.169922
478.028503	8.103342	9118.530273	8375.496094
478.464966	-24.659565	9230.500000	8413.107422
478.901428	-6.786619	9383.577148	8488.300781
479.337860	-54.460003	9696.016602	8665.862305
479.774170	-56.447289	9847.244141	8829.562500
480.210510	-42.538090	9585.316406	8739.778320
480.646698	-21.183840	9612.886719	8803.428711
481.082947	-31.611767	9700.532227	8745.463867
481.519073	-40.551270	9979.382813	9189.244141
481.955200	-53.466450	10257.706055	9391.937500
482.391266	-0.830265	10631.593750	9574.000977
482.827301	-16.715393	10761.253906	9876.554688
483.263306	-16.715528	10566.948242	9472.255859
483.699188	-0.830265	10279.300781	9420.223633
484.135101	-21.183840	9991.552734	9050.928711
484.570923	-13.736571	9615.598633	8688.610352
485.006744	-14.729450	9456.888672	8692.022461
485.442413	-32.604946	9218.264648	8603.288086
485.878174	53.742798	9356.869141	8771.608398
486.313782	0.162515	9280.337891	8540.682617
486.749390	-36.081215	9280.791016	8529.297852
487.184998	-54.460003	9594.808594	8646.525391
487.620453	-32.604946	10320.234375	9329.689453
488.055939	-80.299248	11214.450195	10006.187500
488.491333	-59.428150	12075.768555	10827.598633
488.926727	-45.021538	12642.647461	11355.687500
489.362030	-33.101410	12503.307617	11422.695313
489.797302	-67.875015	12181.634766	11105.284180
490.232513	7.110695	12068.205078	10998.970703
490.667755	-37.571373	11595.019531	10756.979492
491.102905	15.050724	11927.095703	10676.232422
491.537964	-45.518238	12075.768555	10911.626953
491.973022	15.546916	12234.989258	11175.749023
492.407990	15.546916	12159.845703	10919.467773
492.842957	43.824028	11431.195313	10650.429688
493.277832	-55.950497	11223.840820	10488.784180
493.712738	-7.283133	11637.400391	10626.867188
494.147491	-49.989017	11860.285156	11144.435547
494.582275	-37.074741	11913.735352	11188.049805
495.017029	16.043238	11815.285156	10984.416992
495.451660	-17.211857	11756.902344	11034.789063
495.886292	-28.632191	12116.700195	11337.814453
496.320831	-43.531319	12177.188477	11283.066406
496.755402	-18.701267	12374.972656	11399.247070
497.189850	-71.850578	12805.381836	11919.957031
497.624298	-25.156229	13610.517578	12344.748047
498.058655	-4.801145	14729.169922	13206.986328
498.493042	-17.211857	15438.934570	13826.554688
498.927368	-49.492279	15966.434570	14336.689453
499.361572	42.832115	15990.098633	14269.536133
499.795807	-9.268689	15701.233398	14366.407227
500.229919	-24.163040	15387.159180	14091.113281
500.664063	33.407703	14808.744141	13723.959961
501.098083	-29.128754	14534.323242	13401.543945
501.532104	-46.511654	13855.021484	12963.541016
501.966064	-14.729586	14063.582031	13016.680664
502.399994	5.125758	14300.595703	13265.593750
502.833893	-40.551136	14817.095703	13524.160156
503.267700	-84.275520	14459.958008	13350.710938
503.701477	-46.014942	14631.102539	13663.264648
504.135193	-53.963089	15535.455078	14153.906250
504.568909	-72.844444	16582.650391	15136.927734
505.002502	-35.584591	16703.890625	15441.995117
505.436127	-21.680475	15896.314453	14689.800781
505.869629	-34.094749	15047.785156	14084.502930
506.303162	-15.226031	14314.247070	13655.540039
506.736603	-17.211857	14015.536133	13386.074219
507.169983	-41.544601	14230.129883	13370.602539
507.603363	-41.047935	14303.677734	13335.236328
508.036621	-22.176981	13904.421875	13176.017578
508.469940	14.058330	13369.733398	12786.307617
508.903107	14.554529	12768.589844	12238.087891
509.336304	-48.002083	12211.870117	11706.066406
509.769379	-17.708323	12144.722656	11632.480469
510.202484	13.066053	12486.881836	11696.033203
510.635529	-27.638941	12877.615234	12047.945313
511.068481	-54.956783	13640.541992	12761.926758
511.501434	-9.268689	14272.412109	13439.108398
511.934265	-19.694231	14650.015625	13830.965820
512.367126	17.531773	15497.288086	14476.446289
512.799927	-44.524837	15391.546875	14376.312500
513.232605	-76.820206	14830.282227	13857.433594
513.665344	-47.008503	14453.795898	13644.500977
514.097961	-9.765089	14240.702148	13552.871094
514.530579	-32.604946	14074.599609	13208.091797
514.963135	-15.226031	14312.486328	13367.288086
515.395691	-3.808299	15011.324219	13871.768555
515.828064	-47.505222	15451.662109	14292.656250
516.260498	-54.956783	15708.248047	14862.355469
516.692871	-30.618603	15702.110352	14807.411133
517.125183	33.407703	15536.333008	14675.509766
517.557373	-52.472778	15077.652344	14325.681641
517.989624	32.911797	15105.760742	14409.328125
518.421753	3.636775	15269.534180	14348.796875
518.853943	-64.893723	15534.577148	14560.047852
519.286072	-51.976021	15661.767578	14845.872070
519.718018	-22.176981	15319.573242	14477.547852
520.150024	-72.347641	14816.216797	14084.502930
520.581909	0.658831	14668.487305	13595.930664
521.013855	-35.584591	14516.725586	13579.370117
521.445679	-65.887474	14872.916016	13948.947266
521.877502	-61.912453	15022.746094	13958.868164
522.309204	-3.808299	15394.619141	14448.940430
522.740906	-36.577839	15702.110352	14728.278320
523.172546	-39.557957	15788.919922	14779.936523
523.604187	-48.001945	15780.589844	14824.994141
524.035767	-44.028145	15384.964844	14401.624023
524.467224	-55.453571	14617.909180	13840.891602
524.898682	-21.680342	13947.638672	13271.121094
525.330078	-38.564522	13735.006836	13189.290039
525.761475	-19.197746	14653.534180	13761.472656
526.192749	-40.054478	16714.396484	15562.635742
526.624023	-47.008503	19022.070313	17646.542969
527.055237	-60.421940	19700.070313	18471.783203
527.486389	-37.571239	19449.818359	18457.572266
527.917542	-26.149302	18059.298828	17327.308594
528.348572	10.088449	16774.351563	15935.305664
528.779663	-58.931332	15762.617188	15221.449219
529.210571	-21.183975	14924.332031	14673.310547
529.641541	-15.225896	15023.624023	14502.849609
530.072388	-42.041275	16043.119141	15450.770508
530.503235	6.118168	17545.546875	16289.069336
530.934082	-45.518105	18495.623047	17280.291016
531.364746	-47.008366	18459.335938	17259.515625
531.795532	-44.028145	18358.779297	17246.394531
532.226135	-19.694365	18758.394531	17582.046875
532.656738	-45.021538	19814.281250	18325.320313
533.087280	32.415482	21945.113281	20088.044922
533.517822	-16.218935	25973.964844	23087.312500
533.948242	15.546916	33113.257813	28520.900391
534.378662	-19.197882	40838.753906	34932.824219
534.809082	-37.571373	44974.839844	38157.187500
535.239319	-11.750729	42722.968750	36249.566406
535.669617	-25.652763	37841.914063	31996.546875
536.099792	-65.887337	41149.417969	33208.492188
536.529968	-70.359673	50073.984375	39473.871094
536.960083	-54.460003	57606.273438	46032.902344
537.390137	7.110830	62076.628906	50174.679688
537.820190	-73.341385	64166.066406	52062.171875
538.250183	-49.989017	64939.406250	52554.179688
538.680115	-62.906143	64680.511719	52207.671875
539.109985	75.062088	63412.261719	51276.589844
539.539795	-40.054478	60534.558594	49328.996094
539.969543	-34.094749	56936.839844	46697.789063
540.399292	25.966509	52540.023438	43432.609375
540.828979	-20.687346	46857.078125	39307.378906
541.258606	-13.240138	39971.625000	34651.394531
541.688171	-27.638941	34320.671875	30144.414063
542.117737	-3.808299	30540.376953	26857.162109
542.547302	-36.081348	27815.900391	24617.265625
542.976685	-41.047935	24867.767578	22846.257813
543.406128	-3.311949	21661.884766	20190.927734
543.835388	-72.347504	19079.359375	17894.675781
544.264771	-62.906284	18021.263672	16813.285156
544.693970	-44.028145	17823.640625	16674.337891
545.123230	-20.190853	19216.244141	17565.646484
545.552307	-25.156094	24354.572266	21207.517578
545.981506	38.864025	30356.984375	25791.326172
546.410583	-30.121758	36330.414063	30161.109375
546.839539	-76.820076	35665.597656	30665.208984
547.268555	6.118168	28358.517578	25836.753906
547.697449	58.701427	23382.507813	21546.433594
548.126282	-39.061169	20232.753906	18700.228516
548.555054	-37.571239	18209.257813	17016.740234
548.983887	-22.673489	16917.001953	15818.059570
549.412598	-10.261493	15916.913086	15221.449219
549.841309	52.255032	15501.675781	15060.069336
550.269958	-23.666653	15248.022461	14965.620117
550.698486	15.050724	15166.798828	14799.719727
551.127075	13.065784	14926.967773	14622.732422
551.555481	-68.868950	14734.886719	14450.041016
551.983948	-38.067879	14450.715820	14268.434570
552.412292	-39.061306	14674.203125	14397.221680
552.840698	-60.421940	14822.369141	14381.815430
553.268860	-22.176981	15241.440430	14717.285156
553.697205	-90.737602	15283.580078	14765.648438
554.125366	6.614704	15779.714844	15078.736328
554.553467	-48.498672	16153.958008	15592.244141
554.981628	-16.218800	16906.500000	16330.669922
555.409607	-1.822791	16945.443359	16178.476563
555.837646	-57.440758	16167.099609	15625.136719
556.265564	21.501154	15938.386719	15116.067383
556.693481	-45.518238	15677.555664	14909.596680
557.121338	-25.156094	15663.960938	14997.472656
557.549133	-64.396721	15436.303711	14960.128906
557.976929	-31.115047	15799.002930	15344.356445
558.404602	26.958839	17169.425781	16570.382813
558.832275	-28.135494	19345.273438	18048.792969
559.259888	-50.982372	21581.998047	20167.939453
559.687439	-0.830265	22514.302734	21527.781250
560.114929	-39.557957	21942.917969	21395.044922
560.542419	-64.396721	20915.738281	20386.884766
560.969788	-40.551270	19496.189453	19079.562500
561.397156	-11.750864	18346.974609	17773.343750
561.824524	-53.963089	17561.726563	17158.914063
562.251770	-44.524971	17515.373047	17076.894531
562.679016	-77.317184	17466.394531	17161.099609
563.106140	-31.115047	18137.121094	17782.087891
563.533264	39.856274	19427.072266	18973.515625
563.960327	-7.282862	20487.195313	19655.865234
564.387329	-46.015079	21896.361328	20897.310547
564.814331	-30.618467	22152.486328	21409.306641
565.241272	-52.472778	22119.531250	21402.722656
565.668213	-12.247284	22269.832031	21431.242188
566.094971	-52.472645	22156.000000	21310.595703
566.521790	-35.087975	22626.470703	21698.968750
566.948425	-29.128618	23938.638672	23283.341797
567.375183	5.125758	25762.085938	24722.261719
567.801819	5.621898	27652.728516	26233.595703
568.228394	-31.115047	30506.992188	28479.744141
568.654846	-31.611631	34488.269531	31197.009766
569.081421	4.629479	39396.980469	34552.765625
569.507874	-26.645844	41697.082031	37023.718750
569.934265	-25.652763	41031.367188	37226.488281
570.360596	-39.061306	38075.902344	35216.402344
570.786865	-56.447289	33913.519531	32024.337891
571.213074	-47.505089	30498.980469	29087.193359
571.639282	-44.028145	27810.117188	26408.833984
572.065430	-7.283133	25488.296875	24461.476563
572.491516	-26.645844	23862.736328	22830.853516
572.917603	-37.074604	22259.285156	21478.412109
573.343567	-34.094749	21152.492188	20718.722656
573.769531	-56.447289	20634.830078	20093.513672
574.195435	-2.815739	20848.236328	19894.355469
574.621277	-62.906010	20867.957031	19823.238281
575.047119	-15.722346	20598.462891	19839.648438
575.472839	-40.551136	20766.718750	19710.558594
575.898560	27.454929	21181.000000	20185.453125
576.324158	-3.808299	21682.957031	20389.072266
576.749817	-4.304652	22162.154297	21320.462891
577.175293	-17.708458	22295.769531	21249.183594
577.600830	-30.618603	21784.378906	21028.826172
578.026306	5.125758	21434.986328	20696.814453
578.451721	17.531773	21506.511719	20522.666016
578.877136	-79.802246	21761.544922	20706.671875
579.302429	-31.611631	22072.511719	20705.578125
579.727661	-25.156094	22146.333984	21128.580078
580.152832	-21.183975	22105.466797	20927.996094
580.578064	-46.014942	22253.132813	20841.427734
581.003113	-78.311142	22485.714844	21243.703125
581.428223	-12.743710	22535.853516	21186.685547
581.853271	-15.226031	22775.630859	21442.212891
582.278198	-23.169867	22894.470703	21512.423828
582.703125	-23.170002	23197.443359	22011.873047
583.127930	8.599591	23863.179688	22897.978516
583.552795	21.997292	24667.011719	23519.142578
583.977539	10.088449	25413.890625	24035.283203
584.402283	-42.041275	26798.781250	25184.548828
584.826965	-5.297372	28265.097656	26335.626953
585.251587	24.974026	30415.296875	27939.283203
585.676208	-41.544601	32287.314453	29342.021484
586.100647	-79.802246	34947.019531	31039.044922
586.525208	-49.492138	37387.652344	32452.195313
586.949524	-22.673353	38577.375000	32992.003906
587.373962	-59.428150	38457.257813	31973.201172
587.798218	-19.197746	36113.386719	29324.216797
588.222534	-13.736571	30462.476563	24486.884766
588.646729	-46.511787	22893.587891	18452.109375
589.070984	-46.014942	15498.167969	12853.896484
589.495117	-62.409294	10519.792969	8743.190430
589.919128	-6.290379	8185.694336	6633.625488
590.343201	18.027807	7615.073730	6099.900879
590.767151	-65.390732	8384.173828	6721.395996
591.191101	33.407703	9815.205078	7688.642578
591.614990	-0.333940	11691.811523	9355.724609
592.038818	-51.976021	13704.113281	11164.567383
592.462524	-69.862762	15987.468750	12781.875000
592.886292	-21.183840	18272.212891	14545.750000
593.310059	1.651451	20745.248047	16430.287109
593.733582	-32.108356	22951.261719	17987.583984
594.157227	-26.149166	24949.158203	19982.986328
594.580750	-46.511787	26859.173828	21155.988281
595.004272	-60.421940	28790.574219	22882.572266
595.427673	-43.034771	30441.558594	24016.523438
595.851074	-82.287285	31991.222656	25376.019531
596.274353	-12.743710	33468.441406	26843.839844
596.697632	-47.008503	34595.550781	27795.875000
597.120911	-27.142389	35557.082031	28891.361328
597.544067	-0.830265	36333.070313	29412.128906
597.967224	-30.618467	37119.453125	30093.222656
598.390320	-39.061440	37691.031250	30289.089844
598.813354	81.010246	37861.000000	31169.199219
599.236328	-42.538090	38205.187500	31786.431641
599.659241	-48.498672	38512.855469	32068.796875
600.082153	-42.538090	38889.101563	32451.087891
600.505005	-43.034771	38818.695313	32505.525391
600.927795	-26.645573	39166.953125	32706.593750
601.350525	-36.081215	39576.328125	32940.925781
601.773254	-59.924973	38877.066406	32877.628906
602.195862	-34.591358	39047.375000	33097.480469
602.618408	-40.054611	38651.707031	32647.720703
603.040955	-49.989017	38538.664063	32751.019531
603.463440	-27.638941	38047.925781	32206.615234
603.885925	-70.359810	38023.054688	32138.818359
604.308350	27.950748	37464.804688	31686.361328
604.730652	-75.826271	37340.652344	31965.423828
605.152893	-47.505222	37044.113281	31849.802734
605.575195	-23.666653	36678.128906	32135.484375
605.997375	-70.359673	36731.292969	31880.931641
606.419495	-43.531319	36469.933594	31408.343750
606.841553	14.554529	35809.109375	31438.373047
607.263672	-48.995270	35498.609375	31458.392578
607.685608	-48.001945	35319.640625	30842.123047
608.107605	-53.963089	35249.644531	30735.306641
608.529480	-55.950363	35787.851563	30965.619141
608.951294	-19.197746	35977.855469	31311.580078
609.373108	-7.779380	35865.355469	31473.960938
609.794800	-56.944092	35275.785156	31017.910156
610.216553	-46.014942	34824.261719	30471.589844
610.638123	-24.163040	34659.378906	30525.003906
611.059753	-33.598145	34259.480469	30535.021484
611.481262	-7.779380	33871.812500	30404.822266
611.902832	-44.524837	34077.207031	30277.960938
612.324219	-49.989017	34776.839844	30709.718750
612.745605	-31.611631	35041.406250	31069.080078
613.166931	-20.687346	34364.128906	30667.437500
613.588196	-5.793874	33523.476563	29738.205078
614.009460	-12.247284	32620.187500	29214.048828
614.430664	-60.421940	32094.378906	28970.359375
614.851807	-6.290379	31809.794922	28562.058594
615.272827	-31.611631	32194.849609	28634.365234
615.693909	-40.551270	33732.941406	29707.042969
616.114929	11.081046	35916.292969	31502.875000
616.535889	-61.415607	37860.554688	33251.785156
616.956787	-22.176981	37554.398438	33534.785156
617.377563	14.058330	35516.765625	32323.302734
617.798340	1.155143	33284.644531	30907.763672
618.219055	-3.808299	31355.197266	28872.447266
618.639832	-21.680475	30134.416016	27725.849609
619.060364	-13.240004	29182.683594	26850.501953
619.481018	-2.815739	28425.253906	25893.267578
619.901611	-75.826141	27839.464844	25400.373047
620.322083	-64.396721	27158.095703	24877.041016
620.742493	-25.652763	26565.279297	24184.292969
621.162842	-23.666653	25834.326172	23745.148438
621.583191	-51.479393	25762.089844	23795.880859
622.003418	-45.021538	25337.289063	23403.429688
622.423706	0.162515	25165.972656	22905.681641
622.843872	-3.808299	24840.787109	22962.916016
623.264038	-38.067879	24545.457031	22797.841797
623.684143	-63.403000	24318.789063	22279.929688
624.104126	-46.511787	23927.605469	22229.380859
624.524170	-32.604946	23936.871094	21961.353516
624.944031	-36.081348	24005.281250	21904.251953
625.364014	12.569571	25060.208984	22814.345703
625.783752	-20.190989	26042.687500	23223.863281
626.203552	9.592213	26725.085938	23438.689453
626.623230	-26.645844	26729.080078	24346.605469
627.042969	-2.815739	25811.724609	23911.705078
627.462585	22.989552	25051.798828	23108.230469
627.882141	-26.149166	24654.193359	22351.367188
628.301697	-36.081348	24476.072266	22201.912109
628.721130	58.701427	24291.402344	22295.316406
629.140625	-65.887474	24004.398438	21837.279297
629.559998	-21.680342	23639.089844	21773.605469
629.979309	-26.645844	23728.621094	21840.570313
630.398560	-18.204792	23708.330078	21737.380859
630.817810	-83.778351	23595.433594	21791.169922
631.237000	-38.564655	23291.285156	21694.578125
631.656067	-23.666653	22869.820313	20948.818359
632.075195	-51.976021	21871.763672	20440.535156
632.494202	-72.844444	21315.652344	20011.439453
632.913208	-29.625185	21131.005859	19708.371094
633.332092	-19.197746	20754.888672	19720.404297
633.750977	-27.142389	21009.990234	19730.250000
634.169739	-36.081348	21135.390625	19927.179688
634.588562	-47.008503	21091.541016	19754.316406
635.007263	-14.233144	21393.302734	20204.060547
635.425964	-30.121893	21428.843750	19974.230469
635.844543	-40.054478	21763.740234	20381.410156
636.263123	-58.434647	21770.765625	20156.994141
636.681641	-63.899857	21637.302734	20487.623047
637.100037	-28.135494	21842.343750	20570.851563
637.518494	-29.128754	22029.896484	20515.000000
637.936829	-16.715393	22612.392578	20768.021484
638.355164	-2.319128	22604.035156	20455.865234
638.773438	-6.290244	22753.187500	20745.015625
639.191650	-82.287415	22397.765625	20393.451172
639.609863	-44.524971	22160.396484	20306.960938
640.027893	-38.067879	21593.408203	19771.820313
640.445984	-68.371910	21440.687500	19668.990234
640.863953	-53.963223	21037.171875	19474.302734
641.281921	-44.524837	20527.935547	19074.093750
641.699829	-82.784569	19929.382813	18529.714844
642.117676	0.162515	19446.755859	17934.025391
642.535461	-50.485626	18905.751953	17761.320313
642.953247	-22.176981	18691.935547	17503.333984
643.370972	2.147754	18649.960938	17766.787109
643.788635	-44.524837	19163.324219	18132.953125
644.206177	-12.247149	20057.195313	18787.677734
644.623718	36.880016	19869.859375	18754.882813
645.041260	-64.893723	19275.289063	18153.720703
645.458618	-50.485760	19038.687500	18255.367188
645.876099	-38.564522	19291.910156	18609.503906
646.293396	-7.779515	19905.310547	18633.552734
646.710693	-59.925110	20157.445313	18809.539063
647.127991	-71.850441	19545.185547	18686.019531
647.545166	-48.498672	19404.326172	18482.712891
647.962341	-46.015079	18775.447266	18146.070313
648.379333	-56.944092	18317.685547	17579.857422
648.796448	-54.956917	18203.576172	17341.523438
649.213379	-39.061169	18177.779297	17157.818359
649.630310	-45.518238	17950.000000	16795.783203
650.047180	-21.680342	17402.544922	16656.832031
650.463989	-63.899994	16900.375000	15852.030273
650.880859	-48.995403	15992.291016	15363.009766
651.297546	-61.912453	15286.214844	14709.589844
651.714233	-33.101543	14782.367188	14362.004883
652.130859	-28.135494	14720.376953	14126.366211
652.547485	-5.297507	14424.306641	13653.332031
652.963928	33.407703	14384.691406	13668.784180
653.380432	-39.061169	14374.124023	13655.540039
653.796814	-47.505222	14460.397461	13769.195313
654.213196	-26.645844	14984.524414	14001.855469
654.629578	-25.156229	15220.804688	14441.239258
655.045837	-10.757901	15609.142578	14766.747070
655.462036	-31.611631	15962.491211	15138.024414
655.878174	-15.722346	16367.686523	15641.581055
656.294312	-2.319128	16388.705078	15456.254883
656.710327	-44.524971	15922.172852	15319.121094
657.126404	-35.087975	15830.128906	15042.499023
657.542358	14.554394	16203.017578	15065.560547
657.958252	-30.618603	16346.232422	15147.904297
658.374084	-76.820076	16344.041992	15123.751953
658.789917	-7.779380	15510.010742	14820.598633
659.205688	-65.390457	14796.875977	13867.358398
659.621338	-22.673353	14183.877930	13172.699219
660.037048	134.022995	14134.532227	13176.018555
660.452637	7.607089	13870.460938	13089.725586
660.868164	82.497299	13863.842773	13119.599609
661.283691	-33.101410	13358.681641	12893.773438
661.699158	-39.557957	13056.540039	12724.240234
662.114502	8.599591	12795.628906	12561.216797
662.529846	18.524244	12761.940430	12425.814453
662.945129	-3.311949	12816.462891	12410.269531
663.360413	-45.021538	12580.978516	12275.869141
663.775635	-34.094749	12610.706055	12098.001953
664.190674	-38.067879	12577.427734	12016.790039
664.605835	64.651215	12584.083984	12134.701172
665.020813	-33.101543	12426.939453	11909.935547
665.435791	-15.722481	12328.765625	11908.823242
665.850769	-38.067879	12313.215820	11829.753906
666.265625	-31.115047	12931.663086	12190.292969
666.680420	-14.232874	13496.121094	12426.924805
667.095215	0.162380	13662.175781	12812.902344
667.509949	-61.912453	13410.396484	12707.611328
667.924622	-66.384354	13038.387695	12231.418945
668.339233	-85.766647	12705.185547	12090.215820
668.753784	-29.128754	12632.001953	12026.803711
669.168335	-38.564522	12285.216797	11776.278320
669.582825	10.088449	12314.547852	11856.486328
669.997192	27.950748	12431.824219	11709.411133
670.411560	-44.524837	12399.846680	11675.966797
670.825867	-43.034771	12454.914063	11660.356445
671.240173	-20.190989	12548.137695	11713.869141
671.654358	-12.247284	12624.016602	11811.930664
672.068481	20.508732	12618.691406	11984.517578
672.482605	-69.862762	12386.965820	11847.575195
672.896667	-60.918636	12275.438477	11612.405273
673.310669	-57.440895	12089.562500	11271.890625
673.724609	31.423512	11984.531250	11212.647461
674.138489	-0.830265	11847.811523	11124.303711
674.552307	-66.881233	11764.481445	11099.690430
674.966064	-46.014942	11762.250977	11098.572266
675.379822	33.903740	11695.378906	11078.433594
675.793579	-58.931332	11393.676758	10978.819336
676.207153	-5.793874	11308.333008	10821.995117
676.620789	26.462473	11297.606445	10897.065430
677.034241	11.577000	11358.828125	10882.502930
677.447754	6.118168	10898.423828	10455.085938
677.861206	3.140484	10711.465820	10433.741211
678.274597	11.577000	10526.081055	10256.116211
678.687866	-5.297507	10460.041992	9943.076172
679.101135	-23.170002	10187.498047	9743.418945
679.514404	-15.722481	9894.610352	9428.143555
679.927551	-51.976021	9780.904297	9285.531250
680.340698	-42.538090	9478.149414	9064.538086
680.753723	-65.390457	9401.682617	9001.009766
681.166748	-35.087975	9273.087891	8807.974609
681.579712	-52.969543	9198.777344	8798.882813
681.992615	-1.822791	9019.176758	8644.249023
682.405457	61.676331	9110.820313	8848.874023
682.818298	-1.326593	9366.830078	8935.179688
683.231018	5.125758	9728.983398	9256.086914
683.643738	-1.326593	10157.784180	9522.006836
684.056335	-36.081348	10192.899414	9747.934570
684.468994	-25.652628	9462.318359	9142.777344
684.881531	-26.645844	9418.427734	9021.431641
685.293945	-23.666384	9521.568359	9137.108398
685.706482	-96.703400	9679.754883	9266.280273
686.118774	8.103342	9402.135742	9084.952148
686.531128	16.539419	8693.400391	8489.439453
686.943481	-43.531319	8202.587891	7852.393066
687.355713	25.470404	7808.913574	7656.555176
687.767883	-31.115047	7474.211426	7328.356445
688.179932	-5.793874	7347.443359	7229.503418
688.592041	-52.472778	7246.304688	7055.753418
689.004089	-39.061306	7132.201172	6927.879395
689.416016	-43.531319	7251.364746	7038.480469
689.827881	12.569571	7139.565430	7081.083984
690.239868	-32.108219	6941.032715	6862.164063
690.651611	-18.701403	6866.791504	6851.785156
691.063354	-14.729586	6716.792969	6648.643066
691.475098	-8.772293	6576.786621	6420.872559
691.886719	-8.772159	6501.867676	6343.312988
692.298340	-27.142389	6312.521484	6283.084961
692.709900	-0.333940	6541.182617	6300.460938
693.121460	-26.645844	6460.226563	6243.687988
693.532837	-3.311949	6457.450684	6234.416504
693.944214	-46.511654	6281.012695	6073.211426
694.355652	-42.538090	6198.497070	6212.393555
694.766846	-72.844444	6125.669922	6303.936035
695.178101	-58.434513	6293.988281	6317.835449
695.589294	48.287571	6559.679688	6526.138184
696.000366	-49.989017	6762.041504	6563.133301
696.411438	-4.801145	6643.344238	6420.873047
696.822510	-18.701267	6217.507813	6176.453613
697.233459	-74.832359	6102.467285	5916.443848
697.644409	-30.618467	5823.695313	5732.710449
698.055298	-70.856461	5744.594238	5696.628906
698.466064	-42.538090	5690.123535	5506.729980
698.876831	11.577000	5728.302246	5737.365234
699.287537	40.352123	5872.062012	5733.874023
699.698181	-14.729586	5981.279785	5852.517090
700.108826	-53.963223	6058.370117	5846.704102
700.519348	-36.081348	5839.045410	5744.347168
700.929810	-14.232874	5634.696777	5540.537598
701.340271	30.927454	5586.235352	5562.682129
701.750732	57.213787	5534.024902	5481.076660
702.161011	-15.722346	5405.731934	5454.251465
702.571350	-10.261493	5283.841797	5267.471680
702.981567	47.791653	5319.347168	5207.874023
703.391724	18.027807	5110.830566	4998.456055
703.801880	-28.135630	5033.125488	5032.409180
704.211914	-44.028008	4911.316406	4975.033691
704.621948	0.658831	4903.815918	4914.114258
705.031921	-24.163040	4804.860840	4939.892090
705.441895	-42.537952	4722.255859	4760.500977
705.851746	-43.034771	4695.490234	4702.989258
706.261536	2.147754	4690.324219	4631.352539
706.671265	-56.944092	4573.319824	4544.388184
707.081055	-40.551270	4469.842285	4463.239258
707.490662	-10.757901	4359.674316	4475.003906
707.900330	-38.564522	4386.991211	4391.449707
708.309814	-57.937565	4311.618164	4370.257324
708.719299	39.360016	4382.281738	4357.304688
709.128784	51.759148	4272.969238	4324.326172
709.538147	-59.925110	4206.481445	4184.059082
709.947510	9.095972	4215.442383	4260.697754
710.356750	-43.531319	4088.966553	4179.340820
710.766052	-54.460003	4095.577148	4250.089844
711.175171	-32.604813	4022.365723	4086.118896
711.584290	-15.226031	4074.799561	4143.949219
711.993347	-64.396721	4080.466309	4040.068604
712.402405	27.454929	4253.640137	4128.609863
712.811401	7.110695	4182.894043	4097.923340
713.220276	-7.283133	4004.882080	4056.601318
713.629150	-28.632055	3977.469727	4082.577637
714.037964	-15.722346	4028.980713	4082.577637
714.446777	-29.625320	4266.369629	4270.126953
714.855408	-24.659565	4433.602539	4469.121582
715.264099	-26.149166	4607.165039	4573.775391
715.672668	-14.233008	4444.898926	4432.645996
716.081177	-7.779380	4152.695313	4239.480469
716.489746	-33.598145	3968.016357	4076.674072
716.898132	-5.793874	3933.500977	3921.899902
717.306519	-30.618467	3801.958496	3871.046875
717.714844	-49.492138	3680.206543	3744.401611
718.123108	-22.673353	3611.925537	3678.059082
718.531372	-44.524700	3527.936035	3546.433105
718.939514	15.050724	3509.895508	3592.699463
719.347595	-49.988880	3492.801514	3551.179443
719.755676	4.133197	3602.439209	3534.566895
720.163696	-28.632191	3740.863525	3586.769043
720.571716	-43.034771	3803.378418	3727.820068
720.979614	-44.524700	3710.539551	3882.875732
721.387451	-24.659565	3610.977051	3606.930664
721.795227	13.066053	3672.147949	3666.207764
722.202942	-11.750864	3521.764648	3433.647217
722.610718	-55.950363	3451.003418	3430.083984
723.018311	2.644189	3466.204834	3488.275146
723.425903	-35.584728	3471.904297	3507.269043
723.833374	-59.428150	3378.767334	3406.322998
724.240906	-60.421940	3265.556641	3267.207520
724.648376	-52.969543	3246.041016	3311.222168
725.055725	-5.793738	3281.737061	3216.031738
725.463013	-3.808299	3276.026855	3207.698486
725.870300	-25.156229	3180.802734	3174.357422
726.277466	32.415752	3185.566162	3162.446777
726.684631	-5.297507	3172.228271	3267.207520
727.091797	-35.584728	3124.578125	3161.256348
727.498779	-1.326593	3027.299072	3003.904053
727.905823	-11.254448	2967.166504	3003.903564
728.312805	65.642906	3009.644531	3021.797607
728.719666	21.005013	3033.978516	3065.921387
729.126526	14.058330	3005.827881	3083.803955
729.533264	-42.537952	2956.185547	2922.744141
729.940063	-3.808299	2906.996582	2917.968506
730.346680	6.118168	2823.843018	2911.997314
730.753357	22.493423	2853.480713	3000.324707
731.159851	-7.282997	2787.978027	2925.132568
731.566406	-9.765224	2794.673828	2885.722656
731.972900	-17.211857	2854.436035	2816.417480
732.379272	-40.551136	2893.142822	2858.245605
732.785645	-1.822791	2918.937988	2962.139648
733.191895	-40.551270	2877.375244	2928.714844
733.598206	-47.505089	2902.697021	2884.528320
734.004333	-29.625185	2803.760010	2874.971680
734.410522	36.880016	2861.606201	2949.009521
734.816528	-27.638941	2760.233154	2805.658691
735.222656	-60.918770	2719.558350	2822.393555
735.628662	-20.190853	2692.272705	2733.901611
736.034546	-23.169867	2699.932617	2714.757080
736.440430	-19.197746	2644.861572	2753.041992
736.846252	-65.887474	2738.701904	2654.905273
737.252014	-33.598145	2879.765137	2822.393555
737.657715	-42.537952	2925.146973	2941.846924
738.063354	-9.268554	3051.627930	3084.995850
738.468933	-24.659565	2945.681396	3031.339600
738.874512	-19.694365	2883.109375	2845.101074
739.280029	-39.557819	2812.845703	2843.906250
739.685486	-45.021538	2780.325439	2768.590820
740.090881	6.614434	2836.272705	2874.971680
740.496216	-21.680342	2858.260498	2891.694824
740.901550	6.118168	3099.790283	2965.719727
741.306702	-11.750864	3219.379883	3087.379639
741.711914	6.118438	3085.010498	3108.833496
742.117004	11.080776	3017.756348	3106.450439
742.522095	-26.645844	2871.163574	2941.846924
742.927124	-33.598145	2822.886719	2889.305664
743.332031	8.599726	2787.021729	2858.245605
743.737000	-24.659565	2669.288086	2733.901123
744.141785	-46.014942	2705.677246	2715.953613
744.546631	-20.190989	2575.856689	2610.590820
744.951355	-11.750864	2551.405518	2583.032715
745.356079	-0.830265	2581.609375	2623.767578
745.760620	-38.564522	2511.598389	2684.836182
746.165283	-16.715393	2609.407471	2569.850342
746.569824	-42.538090	2531.264160	2603.402588
746.974243	-48.001945	2454.974365	2563.856934
747.378723	-9.765089	2426.648926	2505.106934
747.783020	-28.632191	2428.569092	2464.319580
748.187378	-23.170002	2421.847168	2457.119873
748.591614	-85.269600	2460.254395	2376.683350
748.995850	-24.163040	2472.253174	2476.317627
749.399963	-70.856598	2384.864990	2466.718994
749.804077	-26.149302	2381.982422	2385.090576
750.208130	-41.048069	2413.203613	2347.852783
750.612122	-47.008503	2304.604004	2400.701660
751.016052	-27.638941	2360.362061	2278.140625
751.419922	4.629479	2321.912109	2395.898926
751.823792	-62.906143	2331.045410	2445.118652
752.227478	-15.722481	2267.572998	2400.701660
752.631226	49.775436	2296.910156	2368.275635
753.034851	-2.319398	2267.091553	2308.195557
753.438477	-18.204927	2366.127930	2279.342773
753.842102	-1.326593	2397.354004	2443.918457
754.245544	2.643919	2528.866211	2494.312012
754.648987	-49.989017	2723.387695	2587.826416
755.052368	-35.087975	2779.846680	2770.983154
755.455750	-47.505222	2894.576172	2889.305664
755.859009	-48.001945	2829.580078	2841.516357
756.262268	-31.115047	2814.758301	2860.634766
756.665405	24.974026	2730.566162	2788.919678
757.068542	-31.115047	2479.931152	2541.080811
757.471680	13.562261	2332.006836	2387.492432
757.874634	-36.081348	2159.757568	2270.925293
758.277588	-60.918636	2097.124512	2161.428711
758.680420	-43.531319	2132.782715	2214.389404
759.083374	-26.149166	2153.977539	2085.541992
759.486084	-54.956783	2135.673096	2222.812256
759.888916	3.140484	2175.167969	2119.277344
760.291504	-34.094749	2123.146973	2201.152344
760.694214	-24.659565	2005.501709	2054.204346
761.096802	-95.211853	1988.130249	1970.982178
761.499268	-16.715393	2032.033936	2086.747070
761.901733	-53.466450	2011.291016	2054.204346
762.304199	-13.736571	1953.376831	2015.618652
762.706543	-50.982510	1880.927856	1974.602051
763.108826	-2.319128	1922.473267	2004.763306
763.511108	1.651451	1910.881226	1997.525635
763.913208	-12.247149	1975.582153	1995.112671
764.315369	-30.121758	2091.822754	2021.648682
764.717529	3.140484	2106.763184	2059.026367
765.119568	37.376160	2206.461670	2155.408447
765.521545	7.110830	2253.141357	2244.466553
765.923462	-18.701403	2601.739746	2493.112549
766.325317	-39.557957	3164.605469	2903.638184
766.727112	-81.790398	3499.923584	3280.294922
767.128845	4.629479	3480.454102	3302.896240
767.530518	-26.645708	3096.930176	3089.763428
767.932251	4.629479	2648.214600	2846.296143
768.333862	-39.557957	2374.295898	2439.117676
768.735413	-31.611496	2180.464600	2249.277344
769.136841	17.531773	2140.009033	2101.206543
769.538269	11.080776	2280.078369	2184.302002
769.939636	3.636775	2390.149170	2264.912598
770.341003	-65.887474	2428.569580	2322.618652
770.742249	-6.786619	2346.906494	2205.965820
771.143433	-9.765224	2184.798340	2140.957764
771.544617	-39.557957	2054.218262	2101.206543
771.945740	-3.311949	2074.950928	2007.175415
772.346802	-25.156229	1942.272217	1919.077637
772.747803	-34.591496	1831.142822	1792.197754
773.148682	-16.715528	1741.163452	1736.550659
773.549622	-19.197746	1695.651978	1709.923218
773.950439	-26.149166	1579.820679	1674.809814
774.351196	-54.956783	1511.890869	1577.866211
774.751892	20.509003	1554.111328	1654.219116
775.152588	13.562261	1565.754517	1565.739624
775.553162	14.554529	1534.217163	1582.715820
775.953735	49.279392	1568.179688	1496.583862
776.354309	-23.170002	1482.760132	1456.518311
776.754639	-36.081348	1440.015381	1509.934814
777.155090	-47.505222	1372.935547	1434.655640
777.555420	-49.989017	1325.263550	1337.413330
777.955750	-52.969681	1362.236328	1421.292236
778.355896	-40.054611	1369.045288	1366.598755
778.756104	-17.708323	1439.529419	1458.947510
779.156189	-37.074741	1429.325562	1452.875366
779.556274	-6.290379	1439.043701	1434.655884
779.956299	-10.757901	1399.677368	1454.089722
780.356201	-19.694500	1339.860352	1432.226318
780.756165	-33.101543	1427.867432	1534.202515
781.156006	-19.197882	1488.587280	1524.496094
781.555786	-52.472778	1538.099365	1488.087158
781.955505	-58.434513	1541.981567	1549.972778
782.355225	-4.304652	1492.957275	1546.333740
782.754761	21.997292	1435.642212	1558.462891
783.154358	-41.544601	1318.937866	1437.085449
783.553894	-69.365852	1330.616211	1387.265381
783.953369	-58.434513	1322.343994	1292.396362
784.352783	-78.808395	1245.906128	1287.528076
784.752075	39.360287	1299.956543	1287.528076
785.151367	-2.319128	1239.573242	1233.955933
785.550598	-21.680475	1221.059448	1282.659668
785.949768	-25.652628	1229.829224	1193.751709
786.348877	-52.969543	1170.852539	1173.031982
786.747986	-35.584728	1169.877075	1215.684082
787.147034	-19.197882	1189.379395	1222.993286
787.545959	-55.950363	1163.537842	1154.744751
787.944885	-8.275902	1204.489990	1185.220703
788.343750	-3.311949	1157.685669	1181.564331
788.742493	-16.715528	1126.954468	1213.247437
789.141235	-36.577839	1109.387939	1102.296753
789.539917	-31.115047	1058.128296	1074.227661
789.938538	-21.183840	1116.707886	1086.432861
790.337158	-26.149166	1090.841064	1146.209473
790.735718	45.807808	1170.364990	1263.181763
791.134094	-43.531319	1093.770020	1140.112183
791.532532	25.966509	1257.595947	1201.063232
791.930847	0.658831	1171.827637	1258.311768
792.329224	7.607089	1167.439087	1240.045532
792.727417	-21.183840	1142.565796	1151.086914
793.125610	-79.305389	1110.364380	1129.135498
793.523682	-51.479259	1049.825562	1179.126831
793.921753	-4.304652	1092.305542	1151.086914
794.319824	-42.041275	1054.709717	1124.256470
794.717773	-39.557819	1105.971924	1168.155762
795.115723	-5.793874	1065.941650	1104.737061
795.513550	-4.304652	1068.871338	1127.915649
795.911377	-18.204792	1063.500000	1108.397339
796.309082	39.360287	1134.272461	1151.087158
796.706787	-28.135494	1065.941650	1054.695068
797.104370	9.095972	1125.978760	1142.550903
797.501953	3.140214	1120.123535	1125.476074
797.899536	-62.906143	1018.560181	1081.550781
798.296936	-52.969681	982.881165	1016.835083
798.694397	-21.183975	1037.125854	1102.296753
799.091736	-59.428013	980.436768	1042.484253
799.489014	-20.190853	977.014404	1040.041748
799.886230	38.864296	1031.263428	1081.550781
800.283447	-35.584457	997.545837	1048.589966
800.680542	16.539419	1053.244385	1063.240967
801.077637	42.832115	1034.683228	1026.607422
801.474670	-14.729450	960.389465	943.501038
801.871643	-8.276037	1016.117188	1051.031860
802.268555	1.651586	1014.650696	1038.820679
802.665405	-87.755005	1021.980469	1000.952332
803.062256	30.927183	1079.613037	1060.799561
803.458923	-27.142525	1052.756226	1005.839722
803.855652	-44.524837	992.658203	961.841736
804.252258	82.992928	1129.881958	1197.407715
804.648804	-44.028278	975.548096	989.954834
805.045410	-48.001945	1014.162109	1038.820679
805.441833	36.384003	1035.659912	1125.476074
805.838257	-23.666519	961.367493	972.843811
806.234619	50.271469	1064.964966	1110.837402
806.630859	-34.094749	972.614136	1025.385986
807.027100	-48.498672	914.405762	965.509216
807.423279	-40.551270	906.086304	985.066589
807.819458	-12.743710	975.547546	966.731567
808.215515	-84.772697	917.341919	975.288574
808.611572	34.895802	1000.967468	1027.828735
809.007507	-30.121893	942.293152	983.843994
809.403381	-40.054478	967.724365	999.730530
809.799194	-22.176981	955.988098	974.066040
810.195068	-1.326593	975.058594	1044.926514
810.590759	-39.061169	1005.854614	1042.484253
810.986450	-40.551270	963.812561	1018.056519
811.382080	22.493423	1051.290894	1040.041748
811.777649	-48.498810	1005.854614	1075.448364
812.173157	65.642906	1033.217285	1064.461914
812.568665	-62.906010	963.323486	999.730530
812.964050	-27.638941	1041.033569	1027.828735
813.359375	-1.823061	1061.546753	1007.061646
813.754639	-47.505222	1031.263184	1019.278503
814.149841	-14.729586	1121.587402	1131.574707
814.545105	-18.701267	1184.504272	1159.621826
814.940186	-19.694500	1210.337891	1191.314331
815.335266	-0.333670	1340.347046	1319.166260
815.730347	85.471153	1513.347290	1517.215820
816.125244	-38.564522	1534.217651	1506.293701
816.520203	21.997292	1878.511963	1875.597778
816.914978	-28.135494	2290.178467	2245.669434
817.309753	-39.557957	3153.170410	2780.549561
817.704468	11.577270	4570.968750	3943.179932
818.099182	73.575127	6519.907715	5397.081055
818.493774	-3.808299	8385.541016	6877.154297
818.888367	56.717945	10210.454102	8162.162598
819.282898	42.336018	11382.061523	9042.987305
819.677307	73.079285	12081.107422	9812.257813
820.071716	37.376160	12250.104492	10134.582031
820.466003	15.050724	12021.476563	10045.620117
820.860291	5.621898	11298.947266	9717.455078
821.254517	44.320114	10187.947266	9090.623047
821.648743	-18.701267	9000.570313	8301.380859
822.042786	-11.254313	7823.107422	7351.334473
822.436890	-19.694365	6798.505371	6515.731445
822.830872	8.103342	5799.505371	5735.037109
823.224792	-33.101410	4923.971680	4937.548340
823.618774	3.636775	4304.548828	4333.749023
824.012512	-45.518238	3817.581543	3757.427979
824.406311	-42.041275	3436.274902	3386.121338
824.799988	-26.149166	3045.427002	3087.379639
825.193665	-13.736571	2807.107910	2753.041992
825.587280	0.162515	2570.583496	2503.907959
825.980835	9.095837	2409.361084	2417.510498
826.374329	-33.598145	2274.787842	2255.291748
826.767761	10.584682	2106.763184	2138.549316
827.161194	7.606954	1950.963013	1977.015381
827.554443	-18.204927	1871.263306	1870.765259
827.947754	-42.041142	1716.474243	1772.846558
828.340942	-39.557957	1654.476074	1751.070801
828.734131	-13.240138	1594.854492	1654.219116
829.127136	-71.850578	1456.533203	1511.148315
829.520264	-44.028145	1413.287598	1499.011475
829.913208	-13.736571	1391.898926	1457.732910
830.306152	-2.319128	1346.671509	1382.403198
830.699097	-36.081348	1285.351929	1348.359009
831.091797	-12.743844	1267.336060	1303.348633
831.484619	-44.524837	1205.464355	1168.155762
831.877319	84.479935	1309.691040	1322.816162
832.270020	19.020136	1330.616455	1251.005737
832.662537	-7.282862	1397.246338	1287.528076
833.055054	-71.850578	1317.964600	1300.915161
833.447510	56.222099	1359.804810	1294.830444
833.839966	-9.268689	1185.479248	1094.975586
834.232361	-67.378258	1134.760376	1115.717407
834.624634	-37.074604	1063.988647	1068.124146
835.016907	-8.772293	1093.281738	1077.889648
835.409058	-25.156094	953.542725	997.286987
835.801208	-20.190853	958.922058	923.932739
836.193298	-44.028145	906.576050	932.494629
836.585327	10.584682	946.206360	938.609558
836.977295	-48.995403	841.945068	852.951050
837.369202	-14.729586	872.799072	854.175659
837.761047	-59.428150	791.471619	783.122742
838.152832	-37.571106	782.156616	844.379395
838.544617	11.577270	829.207336	805.181274
838.936218	1.155143	810.587158	855.399902
839.327942	6.118168	800.294495	850.502075
839.719421	10.088449	772.350464	855.399902
840.111023	-0.333940	728.204956	791.701965
840.502380	-46.511654	720.354126	780.671265
840.893860	-41.047935	719.372681	622.368591
841.285217	5.125758	771.370056	729.171570
841.676453	40.352123	755.676697	794.152710
842.067749	-7.779515	694.340637	687.452576
842.458862	-50.485626	717.900146	715.677246
842.849976	-58.931332	687.958313	769.638855
843.241028	-12.247149	640.318665	688.680115
843.632019	12.073220	688.940491	715.677246
844.022949	-22.176981	694.831421	639.566956
844.413879	-64.396721	600.019348	684.997681
844.804749	-56.944092	670.281677	688.680115
845.195496	-19.694365	634.422729	664.128174
845.586182	-11.750864	645.722717	691.134583
845.976807	-51.479393	636.388000	651.848572
846.367432	-35.584728	630.000488	665.355835
846.757996	9.592213	675.683350	700.952759
847.148499	11.080776	628.526489	626.054504
847.538879	28.446831	616.240356	644.479736
847.929260	-33.598145	578.877197	601.479309
848.319641	71.096275	665.370605	654.304688
848.709839	6.614704	614.766052	603.937256
849.100098	-58.931332	573.467712	570.747559
849.490234	-56.944092	597.069519	601.479309
849.880310	-0.830265	599.036194	624.826050
850.270325	-6.290244	613.291504	573.206909
850.660339	15.546916	586.744873	617.454224
851.050171	-2.319128	613.291504	569.518127
851.440125	-8.772293	565.598450	575.665649
851.829895	-36.081348	559.695618	515.394775
852.219604	-31.115047	599.527649	558.450989
852.609314	-24.163040	565.106506	548.612061
852.998901	-15.226031	559.204102	573.206909
853.388550	-9.765224	517.378357	526.468872
853.778015	-6.290244	581.827576	568.288635
854.167480	-23.666653	573.467712	605.166077
854.556885	-50.485760	577.401855	586.729919
854.946228	11.577000	568.549194	568.288635
855.335571	-27.142525	582.811035	618.683044
855.724731	-67.378120	541.492981	495.702087
856.113953	-38.564522	462.226288	565.829346
856.503052	-54.459866	522.300415	509.241608
856.892151	-28.632055	483.898987	510.472168
857.281067	-22.673353	506.056335	496.933197
857.670105	-32.108219	480.944214	488.316071
858.058960	12.073490	513.932739	515.394775
858.447754	-22.176981	562.155396	525.238647
858.836609	77.044968	574.450989	621.140076
859.225281	-8.772293	518.363037	567.059143
859.613892	1.155143	507.041168	514.164001
860.002502	-56.944092	491.285522	476.003967
860.391052	-51.479259	421.324463	462.458069
860.779541	-22.673489	441.532288	496.933197
861.167969	14.058330	522.792725	511.702698
861.556335	-20.190853	456.314301	535.080994
861.944702	-43.034634	464.689484	473.541199
862.332947	-45.021538	472.078491	543.692261
862.721069	-11.254583	490.300690	450.140778
863.109253	-42.041275	433.154266	487.085052
863.497314	13.065784	498.671478	453.836090
863.885376	3.140484	476.511322	485.854034
864.273315	-6.786619	451.880066	484.622711
864.661255	-56.944092	438.575439	374.955383
865.049072	-41.544601	448.431091	351.518890
865.436890	-51.479393	481.436279	467.384064
865.824707	17.035599	501.625458	531.390320
866.212280	1.155143	494.732605	506.779846
866.599915	-18.204792	444.981903	435.357208
866.987488	18.523975	488.330780	447.677063
867.375061	-19.694231	492.270325	499.395050
867.762451	18.524244	485.868744	494.471222
868.149841	-19.694365	402.589478	436.589203
868.537170	4.629479	482.913818	478.466614
868.924438	-11.254448	438.575439	458.763000
869.311707	-22.176981	428.225403	393.451660
869.698853	-35.087975	401.603455	367.555176
870.085938	-13.736571	410.478760	421.802490
870.472961	-27.142389	373.983673	416.872742
870.859985	-3.311949	428.225403	403.314392
871.246887	41.344345	457.299927	371.255371
871.633789	-50.982510	438.082764	405.779694
872.020569	-21.183840	391.247314	371.255371
872.407349	89.931587	471.093079	448.909058
872.794067	21.005013	414.422760	402.081512
873.180725	28.943045	414.422760	357.687195
873.567322	-23.170002	362.636261	345.349854
873.953796	-20.687346	349.806396	362.621368
874.340332	17.035599	392.233643	390.985779
874.726624	4.132927	371.023560	415.640381
875.113037	-71.850441	332.531219	370.022003
875.499329	-61.912453	314.758087	356.453552
875.885559	-19.197746	359.675598	337.946320
876.271729	-46.015079	309.326080	303.384979
876.657898	-24.659565	332.531494	387.286835
877.044006	-41.544601	317.720428	333.010071
877.429932	10.584682	332.531494	344.115967
877.815918	-25.652763	362.636261	347.817535
878.201782	2.644189	352.274048	409.477692
878.587585	46.303738	415.408844	429.196411
878.973389	3.636775	408.506531	346.583710
879.359070	31.423512	401.603180	411.942749
879.744751	-20.687346	322.164063	320.668030
880.130310	-46.014942	293.521698	267.569305
880.515930	-39.061169	347.832550	273.745880
880.901367	-69.862762	319.695618	314.496094
881.286804	-28.135630	370.530487	350.285004
881.672180	-1.822791	344.871216	335.478241
882.057434	-63.403137	284.630096	323.136688
882.442749	-0.829995	282.159943	297.211334
882.827942	-4.801145	309.326080	339.180206
883.213013	-29.625185	295.497498	297.211334
883.598145	12.569571	311.795166	367.555176
883.983154	-22.673353	318.708038	263.863007
884.368042	-24.163040	293.027649	258.921051
884.753052	-36.081215	260.912750	289.802155
885.137817	-33.598145	299.448944	336.712280
885.522644	7.110695	324.632782	344.115967
885.907349	-42.041142	251.522217	246.564087
886.292053	-48.001945	263.877930	265.098480
886.676636	7.607089	292.039764	310.792542
887.061157	-24.163040	231.253265	260.156464
887.445740	-35.087837	288.088013	330.541931
887.830078	2.147754	279.689636	237.912888
888.214539	54.734398	332.037872	360.154266
888.598816	27.950884	300.436584	335.478241
888.983093	-28.135630	322.164063	352.752502
889.367249	-45.021538	253.004852	293.506927
889.751465	-15.722346	255.476318	277.451477
890.135498	-29.625185	268.325348	282.392090
890.519531	-6.786619	319.695343	318.199280
890.903503	1.651451	292.039764	279.921844
891.287415	23.485813	324.139099	373.721924
891.671326	15.050724	259.924500	241.620758
892.055054	-24.659565	271.290070	272.510468
892.438843	-51.479393	275.243011	319.433655
892.822510	-54.956783	250.533417	229.260620
893.206116	-27.142389	252.510605	272.510468
893.589661	-28.632055	240.647003	236.677017
893.973206	-48.995270	230.264542	230.496765
894.356628	-14.729586	258.441772	242.856659
894.739990	-53.466450	262.395264	263.862885
895.123352	22.989552	265.854553	245.328384
895.506592	-21.183975	265.360535	297.211334
895.889832	-14.233144	219.880096	245.328384
896.272949	-9.765089	210.977798	266.333771
896.656067	-4.304787	283.642120	316.964996
897.039063	39.856274	289.570038	333.010071
897.422058	3.636775	239.658279	214.425003
897.804993	-7.282997	242.624481	237.913025
898.187866	-1.822791	259.924500	258.920898
898.570618	6.614434	269.313721	220.606995
898.953369	-20.190718	269.313721	220.606857
899.336121	-10.261493	258.441498	289.802032
899.718689	-3.808299	275.737091	242.856659
900.101257	-10.758036	199.601013	207.006058
900.483704	-25.156094	224.825424	250.271576
900.866211	-20.687346	244.601913	168.659698
901.248596	-20.190853	187.727081	251.507172
901.630920	-20.190853	266.348694	172.371735
902.013184	-23.666384	185.747955	220.606857
902.395386	-29.128754	266.348694	265.098480
902.777588	-25.652763	174.860962	197.112381
903.159668	-8.275902	267.831238	214.425003
903.541687	-40.551270	222.847107	189.691345
903.923645	25.966509	302.906036	298.446014
904.305603	-40.054478	232.736664	256.449860
904.687500	0.162380	240.152634	246.564224
905.069275	-45.021538	178.325272	187.217377
905.451050	-6.786619	239.163803	278.686646
905.832642	-48.995403	245.096085	229.260620
906.214294	22.493559	253.993484	310.792542
906.595825	-5.297507	263.383759	287.332184
906.977417	-38.067879	240.152634	260.156464
907.358826	14.058330	220.869247	244.092545
907.740234	0.658831	221.858261	197.112381
908.121582	14.554529	305.375397	249.035675
908.502869	-2.319398	250.039291	249.035675
908.884033	27.454929	231.747955	239.149017
909.265198	-37.074604	190.201172	208.242523
909.646301	31.423512	234.714386	194.638840
910.027344	-20.190853	234.219864	221.843338
910.408325	47.791653	296.485352	337.946320
910.789246	-35.087837	238.669434	249.035675
911.170105	-17.211857	259.430298	274.981018
911.550903	-31.611631	267.337097	263.863007
911.931641	-32.604813	261.901245	215.661591
912.312317	-31.115047	207.515610	202.059418
912.692932	-13.736571	250.533691	226.788239
913.073547	9.095972	278.207672	298.446014
913.453979	-57.937565	265.854553	303.384979
913.834473	-9.268554	249.545013	229.260620
914.214783	-40.551270	262.889313	255.214081
914.595154	50.271336	303.399902	353.986206
914.975464	-8.772293	284.136108	207.006058
915.355652	14.554529	283.148102	319.433655
915.735840	0.162515	260.418549	252.742874
916.115845	13.562261	300.930725	300.915558
916.495972	-40.054611	251.027695	279.921844
916.875854	-38.067879	282.654083	219.370651
917.255859	-17.708323	328.088470	303.384979
917.635620	-26.645844	265.854553	328.073578
918.015503	3.140214	364.609924	341.648102
918.395203	34.895802	393.220215	341.648102
918.774902	-58.931332	306.857025	362.621368
919.154480	-50.982510	277.219421	273.745880
919.534058	122.631859	392.726898	467.383789
919.913574	-58.434513	280.183685	244.092545
920.292969	-22.176981	277.219421	263.862885
920.672363	-1.822791	267.336945	270.039917
921.051636	-35.088108	249.545013	260.156464
921.430969	4.132927	229.769836	255.214218
921.810181	-19.694365	268.819489	251.507172
922.189331	-58.434376	202.568878	228.024429
922.568420	-65.887474	199.600876	208.242523
922.947388	24.974297	286.112213	281.156830
923.326416	-25.652763	209.988754	221.843338
923.705261	-15.722346	210.483215	221.843338
924.084106	70.104813	322.657898	294.741669
924.462891	-2.319128	263.878052	177.320633
924.841675	-24.163040	286.112213	231.732758
925.220337	-47.505222	235.703186	229.260483
925.598938	-15.225896	261.901245	182.269135
925.977478	70.600548	373.983673	356.453430
926.355957	-48.498672	259.430023	205.769287
926.734436	-65.887474	249.050461	200.822693
927.112732	37.872166	314.757813	283.627045
927.491089	-87.755005	201.085022	232.969009
927.869324	-49.492138	205.536987	225.552017
928.247559	-3.311949	175.355850	241.620758
928.625671	-7.282997	145.160202	221.843338
929.003723	-8.275767	230.264542	232.968872
929.381775	-19.694365	170.901825	143.907379
929.759705	-22.176981	135.751694	141.431549
930.137634	-59.428013	134.266098	153.809402
930.515381	-33.598011	190.695923	225.552017
930.893250	43.824028	246.579147	299.680939
931.270935	-4.801145	185.747818	159.997513
931.648560	-37.571239	109.499741	146.383102
932.026123	-40.054478	135.751831	143.907379
932.403687	-46.015079	132.780579	141.431549
932.781250	7.607089	139.218231	202.059418
933.158630	85.471291	265.854553	221.843338
933.536011	-33.101410	123.370155	169.897064
933.913208	-61.912453	130.304306	157.522354
934.290527	-86.263832	99.094971	65.871307
934.667664	73.079285	194.159058	244.092545
935.044800	-35.584591	147.635864	121.621582
935.421814	-36.577839	122.874863	134.003601
935.798889	-9.268554	125.351578	172.371735
936.175842	-45.518105	89.183853	101.805244
936.552673	-21.680342	116.930702	95.611183
936.929504	-21.680342	83.236366	111.714294
937.306274	12.073490	91.661819	141.431549
937.683044	-51.976021	96.617584	111.714294
938.059570	-57.937702	39.603626	107.998535
938.436218	84.975548	164.962494	194.638840
938.812744	-59.428150	26.210039	85.699615
939.189148	-29.625185	74.314026	95.611183
939.565613	-23.666519	22.240973	67.110786
939.941956	-58.931332	65.886406	38.596806
940.318237	-19.197882	102.563477	84.460388
940.694458	-23.666384	88.192551	125.336487
941.070557	-60.918770	55.969654	1.383928
941.446655	35.391830	105.536339	73.307655
941.822693	-7.282997	93.148338	104.282562
942.198669	8.599726	50.514900	43.556564
942.574646	-25.652763	73.322487	41.076736
942.950562	20.012583	71.339760	38.596806
943.326294	-26.149166	45.059647	42.316727
943.702026	4.629479	58.944691	78.264671
944.077698	-36.081348	42.579750	49.755878
944.453369	-18.204792	9.835675	58.434029
944.828918	-13.736571	45.555454	121.621582
945.204468	-23.170002	67.373558	52.235481
945.579834	-48.498672	36.627625	57.194374
945.955261	-18.701403	59.936474	23.714376
946.330627	-35.584728	74.314301	68.350235
946.705811	-33.101410	39.603626	13.790729
947.081055	6.614704	19.263966	36.116634
947.456177	-34.591358	86.210045	99.327698
947.831238	-57.440758	40.595730	31.155989
948.206238	-14.729586	65.886406	23.714241
948.581238	-55.453571	60.432289	16.271830
948.956116	22.989687	81.253693	6.346934
949.330933	-54.459866	25.713802	88.177589
949.705811	-46.511787	72.826775	33.636364
950.080505	-56.447155	55.473801	19.993153
950.455139	-70.856728	78.279762	67.110786
950.829773	-36.577839	51.506824	13.790729
951.204346	148.382751	276.231171	282.392090
951.578735	78.036316	190.695923	185.980347
951.953186	9.095972	96.617043	70.829063
952.327515	-36.081348	76.792747	94.372421
952.701843	-8.275902	65.390633	27.435368
953.076172	-85.766647	19.760120	10.069016
953.450195	-51.479393	43.075710	64.631805
953.824341	-36.081348	76.296928	23.714376
954.198486	-62.409294	40.099613	44.796505
954.572449	34.400043	157.042282	106.759903
954.946350	9.095972	66.877800	34.876377
955.320251	33.407703	109.499741	41.076736
955.694092	-34.591358	87.696968	48.516174
956.067871	-10.261493	73.818329	95.611183
956.441589	1.651451	104.545441	135.241684
956.815125	-21.680475	54.481949	31.155989
957.188721	-22.176981	122.379562	7.587654
957.562256	-47.008503	55.473801	58.434029
957.935730	-22.176846	70.843758	59.673660
958.309021	-38.067879	29.682772	106.759903
958.682373	-47.008503	29.682772	23.714376
959.055664	-10.261493	37.619778	17.512207
959.428955	-58.931332	66.382042	65.871307
959.802063	-31.115047	17.775339	73.307655
960.175110	-27.142389	30.178703	58.434029
960.548157	-66.384354	30.178703	-9.784529
960.921143	-30.618467	59.936474	3.865551
961.294128	-14.233008	22.737104	55.954689
961.666809	-43.531319	29.682772	21.233721
962.039612	-35.584591	52.498322	98.088882
962.412415	-18.204792	50.019005	-8.543605
962.785095	-53.963223	23.729219	49.756012
963.157715	-53.466316	56.961483	63.392273
963.530151	-60.918636	64.398941	42.316727
963.902649	-23.666519	74.314301	54.714977
964.275146	-15.722346	45.555454	107.998535
964.647522	-37.074604	44.563705	85.699615
965.019714	-64.893723	48.531147	27.435368
965.392029	-24.163040	51.506824	115.429680
965.764160	-45.021538	49.522827	77.025551
966.136292	-28.632055	54.978210	129.051178
966.508423	-51.976021	53.986214	31.155989
966.880371	-50.485760	86.705917	83.221405
967.252319	21.501019	154.567123	99.327698
967.624207	-32.604946	65.390633	60.913269
967.996094	10.088449	67.869316	95.611183
968.367737	18.027807	101.076920	142.669479
968.739441	-31.611767	72.331062	138.955627
969.111084	-44.524971	74.809860	73.307655
969.482666	-57.440895	32.659389	62.152851
969.854248	-55.950363	13.309502	8.828213
970.225586	-24.659565	51.506554	75.786278
970.596985	-11.750864	58.944962	52.235481
970.968323	-26.149302	46.051392	59.673660
971.339661	12.073220	89.183853	81.982262
971.710754	28.943045	86.705917	73.307655
972.081909	-1.822791	111.481476	75.786140
972.453064	-22.673353	41.091709	83.221405
972.824097	87.949142	165.457458	173.608902
973.194946	-39.557819	18.767941	46.036423
973.565918	1.155143	63.903164	63.392273
973.936768	-7.282862	37.123768	60.913136
974.307556	-47.505222	16.286943	6.346934
974.678284	-11.254313	39.603626	24.954731
975.048828	-25.156094	76.296928	64.631805
975.419495	33.407703	63.903164	11.309523
975.790039	-32.108219	35.139431	34.876377
976.160522	-16.715393	62.415649	78.264671
976.530884	-37.571239	50.515034	44.796638
976.901245	-20.687346	35.139568	37.356598
977.271606	0.162515	55.473934	49.756012
977.641846	24.478050	72.331062	106.759903
978.012024	-22.176981	102.563339	74.546982
978.382019	-28.135494	33.651203	58.434029
978.752136	41.840183	121.884117	83.221405
979.122131	-10.757901	99.590332	105.521378
979.492065	-45.021538	67.869453	11.309523
979.861877	-40.054478	6.858314	59.673660
980.231689	-71.850578	23.233095	1.383928
980.601440	-32.108219	17.279301	-22.196291
980.971191	6.118438	56.961483	60.913136
981.340820	-39.061306	28.690620	19.993153
981.710266	-14.233144	28.690620	-11.025749
982.079773	-16.218935	52.002708	107.998535
982.449280	-2.319398	39.107639	15.031292
982.818604	31.423512	86.705917	88.177727
983.187866	-32.108219	54.977943	-23.437773
983.557129	-29.128754	37.619507	50.995827
983.926331	-53.963223	43.571671	-1.097798
984.295471	-21.680475	51.506824	77.025551
984.664612	-55.453571	28.194405	-3.579629
985.033569	-11.254313	41.587681	1.383928
985.402527	8.103342	68.365067	64.631805
985.771362	34.895939	41.091709	75.786278
986.140259	12.569571	86.210320	94.372421
986.508911	-2.319398	79.271225	68.350235
986.877625	58.205597	139.218231	83.221405
987.246277	-37.074604	24.721586	69.589531
987.614929	3.636775	55.969791	109.237144
987.983459	3.140484	86.705917	54.714977
988.351807	-16.218800	32.163071	70.829063
988.720215	-18.205063	-11.010763	27.435368
989.088623	-62.906143	34.643406	-13.507729
989.456909	-4.801010	86.705917	111.714294
989.825012	-30.122026	41.587681	57.194374
990.193115	-51.976021	9.835945	-23.437773
990.561279	-35.087837	95.130615	15.031292
990.929321	-39.557957	19.263966	60.913136
991.297302	-7.282997	37.123501	6.346934
991.665100	-37.571106	24.225607	12.550138
992.033020	10.088449	66.382042	73.307655
992.400818	-46.511787	23.233366	-30.886135
992.768494	-9.268689	65.886406	-9.784529
993.136047	-11.750864	50.514900	63.392273
993.503723	-38.564655	36.131611	37.356598
993.871277	-4.304652	71.339760	114.191200
994.238770	-58.434647	64.398941	60.913136
994.606140	-49.492138	1.895216	-6.061564
994.973450	-74.832359	-12.499885	-6.061564
995.340759	-19.694231	6.858179	44.796638
995.708008	-5.297507	43.075710	23.714241
996.075195	-21.183975	37.123501	23.714376
996.442200	-60.918636	41.091976	32.396191
996.809265	-23.170002	64.894592	-9.784529
997.176270	-36.081348	9.835945	58.433891
997.543152	-38.067879	38.115780	46.036423
997.910095	-31.611496	38.115780	27.435368
998.276733	-30.618603	65.886406	59.673660
998.643494	-51.976021	-36.334049	0.143078
999.010193	-42.538090	-10.514083	5.106188
999.376831	-27.639074	19.263966	15.031292
999.743286	-42.041409	33.651340	53.475239
1000.109802	14.058330	82.740738	13.790729
1000.476257	-24.163040	11.820994	15.031292
1000.842651	-32.604813	1.398911	-8.543469
1001.208923	-23.666653	38.611645	90.655602
1001.575134	-53.466450	48.035229	-40.819122
1001.941284	-30.121758	-37.327446	44.796505
1002.307434	-48.001945	-9.024743	46.036423
1002.673523	-43.531319	-15.478643	-20.955105
1003.039429	-43.034634	-4.060862	-2.338701
1003.405334	-21.680342	48.531147	13.790729
1003.771179	-40.054478	-22.926134	-30.886135
1004.137024	-5.297507	13.805707	-14.749026
1004.502808	-44.524837	-10.017813	6.346934
1004.868408	-25.156094	34.643406	50.995827
1005.234009	-52.969543	24.721586	-33.369225
1005.599609	-23.666519	21.248564	21.233585
1005.965149	-50.982643	-0.586489	24.954731
1006.330444	-32.108356	-31.367727	16.271830
1006.695862	-35.088108	26.210039	-32.127800
1007.061218	-51.479393	11.324502	17.512207
1007.426453	-1.326323	62.415649	65.871307
1007.791626	-34.591358	26.209904	8.828213
1008.156677	-31.611631	19.760120	31.155989
1008.521729	-1.326593	81.749466	78.264671
1008.886780	-63.899857	29.186697	16.271830
1009.251709	-21.183840	-14.982195	-43.302628
1009.616577	-4.304652	-9.521276	34.876377
1009.981384	-41.544601	15.790623	-8.543469
1010.346130	14.058330	42.579750	73.307655
1010.710754	10.584682	52.498455	75.786278
1011.075439	55.230526	68.365204	104.282562
1011.439941	-31.115047	11.820724	-2.338701
1011.804443	-24.659565	-34.347580	55.954689
1012.168884	-38.564522	16.782854	-50.753521
1012.533325	-70.856598	-23.422783	-32.127800
1012.897522	-31.115047	18.767941	-11.025614
1013.261780	-56.447155	-7.535575	-7.302437
1013.626038	-23.666384	21.744839	-11.025614
1013.990112	6.118168	21.744839	42.316727
1014.354187	-34.591358	41.091709	28.675510
1014.718140	1.155143	36.131611	37.356598
1015.082153	3.140484	71.339760	29.915762
1015.446045	-15.225896	7.354439	42.316727
1015.809937	-20.687346	37.619507	50.995827
1016.173523	-42.538090	8.843328	1.383928
1016.537170	-43.034771	9.835945	-14.749026
1016.900879	-29.128618	-5.550077	10.069016
1017.264404	-25.652628	28.194538	-29.644766
1017.627991	-14.729450	1.895216	37.356598
1017.991333	-64.396858	4.873233	12.550138
1018.354675	13.561991	-20.443623	3.865551
1018.718018	-42.041275	4.873233	-3.579629
1019.081299	27.950884	29.682772	5.106188
1019.444397	7.607358	28.690620	16.271830
1019.807495	-40.054478	-12.003462	10.069016
1020.170593	-11.254448	5.369374	7.587654
1020.533691	-41.048069	32.163342	62.152718
1020.896606	-37.074604	-33.354233	-35.852417
1021.259460	-64.893723	-29.381424	-9.784529
1021.622253	-11.254448	-6.542953	-38.335716
1021.985046	5.125758	29.186697	33.636364
1022.347778	17.531773	35.139568	-8.543469
1022.710327	-50.982643	-37.824085	12.550138
1023.072876	-57.937565	-35.837425	-2.338701
1023.435364	-27.638941	-47.758110	12.550273
1023.797852	-35.584728	-10.514218	68.350235
1024.160278	-85.269600	-25.905420	-29.644766
1024.522461	-51.479259	-6.046445	-14.749026
1024.884766	-80.299248	-46.267960	-29.644766
1025.246948	-15.226031	17.279301	26.194929
1025.609131	-53.466450	26.706001	-84.295128
1025.971069	1.155143	17.775339	-19.713810
1026.333130	-64.893723	-34.844055	-53.237453
1026.694946	45.807808	36.131611	-9.784529
1027.056885	40.848103	72.827042	47.276443
1027.418823	-61.912453	0.406287	-27.161837
1027.780396	-21.680475	6.858179	-33.369225
1028.142090	-57.440895	19.263966	44.796638
1028.503784	-17.211857	-23.919302	-58.205631
1028.865479	-43.034771	-26.401960	-12.266726
1029.226807	-41.047935	9.835945	-9.784529
1029.588135	-76.820206	-42.790817	12.550138
1029.949707	-18.701403	-16.968147	-24.679010
1030.310913	0.658831	-7.039330	46.036423
1030.672241	-31.611631	34.147373	68.350235
1031.033325	-9.765224	-12.996311	-45.786110
1031.394531	8.103342	35.635323	49.756012
1031.755493	-21.183975	-19.947268	2.624618
1032.116577	-26.149166	-0.090031	-14.749026
1032.477417	-16.218935	37.123501	29.915897
1032.838257	-61.415607	-5.550077	-19.713810
1033.199097	-64.893723	-7.535710	-15.990082
1033.559937	-9.765224	1.398911	-6.061564
1033.920654	8.599726	5.369374	-23.437773
1034.281128	-37.571239	-40.804127	-40.819122
1034.641724	3.140484	45.555454	-34.610943
1035.002197	6.118168	48.035229	36.116634
1035.362671	-31.611767	41.091709	42.316727
1035.722900	-25.156094	-0.090166	-33.369225
1036.083252	4.133197	26.210039	26.194929
1036.443481	-76.323242	4.872963	-32.127800
1036.803711	-18.701403	-14.982330	-38.335716
1037.163940	48.783623	56.961483	67.110786
1037.523804	-10.261493	36.131611	34.876377
1037.883789	-42.041275	-17.464611	-69.385445
1038.243774	-28.632055	-6.542953	0.142943
1038.603638	-5.793874	6.361915	52.235481
1038.963257	-30.618332	14.302044	-28.403288
1039.323120	-10.261493	-14.485751	80.743080
1039.682861	-63.403137	-35.340805	-65.658424
>>>>>End Processed Spectral Data<<<<<
