Jaz Data File
++++++++++++++++++++++++++++++++++++
Date: Wed Dec 03 23:14:32 2014
User: jaz
Dark Spectrum Present: Yes
Reference Spectrum Present: Yes
Processed Spectrum Present: No
Spectrometers: JAZA2310
Integration Time (usec): 2040000 (JAZA2310)
Spectra Averaged: 1 (JAZA2310)
Boxcar Smoothing: 0 (JAZA2310)
Correct for Electrical Dark: Yes (JAZA2310)
Strobe/Lamp Enabled: No (JAZA2310)
Correct for Detector Non-linearity: Yes (JAZA2310)
Correct for Stray Light: No (JAZA2310)
Number of Pixels in Processed Spectrum: 2048
>>>>>Begin Processed Spectral Data<<<<<
W	D	R	S
188.301102	0.000000	0.000000	0.000000
188.764923	0.000000	0.000000	0.000000
189.228699	-194.969818	-200.148270	-205.251617
189.692459	-168.207932	-139.790680	-162.928558
190.156158	-140.836594	-152.852386	-147.998550
190.619812	-165.096909	-127.975380	-167.906189
191.083435	96.875916	148.068771	112.659798
191.547043	-50.106682	-25.471273	-48.563652
192.010590	-2.933177	-42.853222	-48.563652
192.474091	44.202499	3.073673	28.382071
192.937561	8.854260	6.795825	-18.766214
193.401001	66.516869	58.882526	-8.837093
193.864410	125.362350	135.689743	40.783356
194.327759	86.964561	92.962082	127.520020
194.791077	44.822399	45.865131	68.056992
195.254349	11.335568	8.036536	-21.248791
195.717575	-1.071882	-29.195465	3.571854
196.180786	-41.413986	44.005306	30.862564
196.643951	31.802061	52.684025	55.661381
197.107071	31.802061	8.036672	3.571854
197.570145	61.558887	39.665272	97.795784
198.033203	26.841055	24.163137	25.901611
198.496216	8.854260	34.705189	-6.355041
198.959167	3.891330	14.239429	-1.391385
199.422089	-50.727581	2.453336	-70.921593
199.884979	-60.663799	-45.957668	-18.766214
200.347855	-26.515123	45.245106	-8.837093
200.810654	23.740417	43.385395	92.840385
201.273422	28.081480	-4.992022	48.222832
201.736160	163.735794	203.743805	246.271851
202.198853	21.879768	33.464905	142.376602
202.661514	77.051300	118.354485	120.090370
203.124130	-33.343159	-18.644154	-130.585052
203.586700	119.789970	141.879562	186.924561
204.049240	137.743484	117.735619	50.702496
204.511734	-15.964159	8.656949	-23.731337
204.974197	13.196280	58.882664	63.099003
205.436615	-51.969532	-29.195465	-53.531300
205.899002	54.741005	103.492012	-8.837093
206.361343	-24.652948	15.480118	-16.283743
206.823654	13.196414	25.403349	13.497216
207.285919	93.779045	104.111298	157.229538
207.748123	-55.695549	-24.850508	-68.436913
208.210327	7.613566	-14.920494	-11.319250
208.672485	-45.139328	27.883965	38.303280
209.134583	70.854813	32.844883	60.619987
209.596649	-65.011421	-58.377361	-78.376152
210.058670	-34.584877	-39.128162	-63.467995
210.520676	-61.284813	-78.875168	-6.355041
210.982635	-9.138144	2.453201	-13.801512
211.444534	16.917931	7.416252	1.090354
211.906403	86.345093	120.831261	92.840385
212.368240	77.051300	62.601322	105.228180
212.830048	-11.620178	-32.920029	-21.248791
213.291779	86.964294	109.065903	87.884445
213.753494	-32.101738	-7.474017	-51.047356
214.215179	13.196414	17.961149	20.940111
214.676819	-118.451645	-73.284218	-108.204094
215.138412	-33.343430	-55.272121	-8.837093
215.599960	20.639214	45.245106	68.056992
216.061493	-27.135775	5.554954	50.702496
216.522949	-19.067045	45.865261	40.783356
216.984406	24.980637	30.984520	60.619987
217.445801	14.436991	24.783381	63.099003
217.907166	75.192589	125.784492	147.327927
218.368484	-19.687885	16.100452	25.901611
218.829773	18.158428	39.665272	30.862564
219.291031	-13.481806	-12.438186	18.459339
219.752228	33.662266	-11.197070	1.090354
220.213379	86.964561	89.245575	30.862564
220.674500	-83.647774	-31.057785	-80.861267
221.135574	5.752545	32.224724	11.015998
221.596634	-37.688881	41.525364	-56.015347
222.057648	-65.011284	-36.024082	-38.629490
222.518600	-83.647774	-22.988653	-88.317093
222.979553	-75.571236	-65.830177	-38.629490
223.440430	29.321609	63.220898	77.971603
223.901276	24.360531	51.444515	40.783356
224.362076	-11.620178	1.832858	-28.697012
224.822845	-44.518356	-101.866356	-140.534988
225.283569	-6.656078	14.859912	23.420914
225.744278	-48.864769	-51.545998	-26.214121
226.204910	-6.035646	27.883965	28.382071
226.665512	-73.086357	-27.954132	-75.891151
227.126114	-27.756699	40.905430	40.783356
227.586639	69.615410	96.059532	75.493073
228.047119	38.002605	23.542885	-8.837093
228.507568	24.360531	29.744425	28.382071
228.967972	-19.067181	-13.058821	-8.837093
229.428345	-68.738266	-50.304192	-60.983631
229.888687	-14.102452	-19.264719	6.053384
230.348984	-47.002022	-11.817692	-23.731337
230.809219	-22.791101	-1.889743	-18.766214
231.269440	-17.205376	-18.023460	-3.873228
231.729614	-94.210983	-32.299458	-147.998550
232.189758	-20.308596	1.212373	8.534811
232.649841	-18.446482	-16.161552	6.053384
233.109894	-6.035511	17.961149	-53.531300
233.569901	105.547379	130.118301	95.318199
234.029892	65.897194	115.877884	125.043526
234.489822	67.756470	50.204578	60.619987
234.949707	-50.106682	-6.853441	-33.662971
235.409561	71.474571	76.854485	60.619987
235.869385	-8.517550	60.742020	58.140739
236.329163	-22.791101	14.239563	3.571854
236.788895	-53.211380	-16.161688	-28.697012
237.248581	51.641682	63.840870	97.795784
237.708237	21.879633	60.741886	33.342949
238.167847	-55.695549	-4.371472	-75.891151
238.627441	29.321609	29.744425	6.053384
239.086960	-50.727581	-28.574795	-36.146179
239.546463	63.418293	48.964882	75.493073
240.005920	11.955812	67.559212	33.342949
240.465332	-90.482498	21.062088	53.182060
240.924698	27.461271	26.643805	11.015998
241.384033	-52.590450	-14.299975	-31.180006
241.843338	-10.378945	-32.299320	-38.629490
242.302597	-11.620178	35.325188	55.661381
242.761810	158.785934	95.439888	120.090370
243.220993	28.701548	0.592017	43.263332
243.680115	48.542068	30.984791	60.619987
244.139221	-35.205612	-41.611599	-46.079918
244.598282	-2.933177	-34.161606	-6.355041
245.057297	-38.930557	-10.576590	-70.921593
245.516266	-34.584877	100.395210	-53.531300
245.975189	-51.969532	-7.474017	-98.259743
246.434082	-72.465218	-27.954132	-75.891151
246.892944	15.677541	-48.441395	-46.079918
247.351761	-4.794531	-4.371472	3.571854
247.810516	148.884445	198.178314	256.157379
248.269272	-6.035511	-4.992022	-3.873228
248.727951	114.217064	190.138733	167.129654
249.186600	-59.421665	-11.817692	-125.610809
249.645218	-106.019226	-40.990665	-8.837093
250.103790	36.142536	13.619344	40.783356
250.562317	-52.590450	-65.830177	-28.697012
251.020813	-42.034794	-13.679327	-6.355041
251.479279	-68.117043	-27.333475	-90.802628
251.937668	-30.239384	-12.438050	-113.176849
252.396057	22.500036	67.559212	70.535698
252.854385	-42.034794	-45.336819	-75.891151
253.312683	16.297739	16.100452	-16.283743
253.770920	-73.086357	-34.782467	-16.283743
254.229126	-47.002022	-33.540882	-43.596291
254.687302	-60.042797	-30.436960	-46.079918
255.145432	-116.586517	-42.853222	-75.891151
255.603500	-113.478432	-94.408783	-98.259743
256.061584	-10.999694	29.124233	23.420914
256.519592	2.030191	-22.367914	-36.146179
256.977570	-58.800674	-44.715977	-167.906189
257.435455	-28.377361	-16.782227	-53.531300
257.893372	-34.584877	-55.893211	-16.283743
258.351196	-17.205376	14.239563	122.566933
258.808990	4.511786	35.325188	-21.248791
259.266754	-53.832443	-53.409031	-80.861267
259.724487	167.447998	179.005310	211.659607
260.182190	10.094927	47.724892	28.382071
260.639832	-61.905964	-58.377090	-36.146179
261.097443	-66.874748	-27.333340	-31.180006
261.554993	33.042114	10.517879	-1.391385
262.012512	21.259493	48.964882	73.014435
262.469971	10.094927	78.713150	82.928230
262.927429	-4.794666	54.543575	13.497216
263.384827	-12.861301	0.592017	13.497216
263.842194	24.360531	13.619209	53.182060
264.299530	-65.632614	-42.232407	-83.346344
264.756805	-49.485794	-48.441395	-147.998550
265.214050	-9.758609	2.453201	-65.952469
265.671234	165.592056	143.736496	107.705482
266.128387	27.461405	-17.402908	-8.837093
266.585510	-91.103966	-90.680283	-93.288139
267.042572	-10.379215	-0.028346	-3.873228
267.499573	-4.794531	-36.644829	6.053384
267.956604	81.388618	106.588654	53.182060
268.413574	147.646774	179.005569	132.472565
268.870483	50.401749	70.038078	132.472565
269.327362	-66.874748	-47.199654	-13.801512
269.784180	109.262886	158.589111	120.090370
270.240936	74.572998	108.446663	102.750908
270.697693	-74.950081	-9.956117	-8.837093
271.154419	-99.803955	-2.510267	20.940111
271.611053	-140.836731	-59.619339	-36.146179
272.067688	84.486671	112.162254	33.342949
272.524292	-11.620178	-2.510132	75.493073
272.980835	-40.172256	42.145290	13.497216
273.437347	-0.451373	40.905430	82.928230
273.893799	-28.377226	-39.128162	-48.563652
274.350250	-16.584831	-9.956117	-58.499371
274.806610	-78.056099	-60.240475	-83.346344
275.262939	108.024406	62.601322	90.362465
275.719238	2.650532	8.036672	-3.873228
276.175507	-1.072017	45.245239	28.382071
276.631714	67.756470	50.824417	33.342949
277.087891	0.789355	18.581322	-28.697012
277.544067	-12.861301	-11.817557	-68.436913
278.000122	-65.011421	-26.712688	-41.112770
278.456177	11.955812	36.565170	80.449905
278.912201	23.120163	51.444248	25.901611
279.368164	-84.269035	-20.506004	-16.283743
279.824097	-90.482635	-62.724674	-38.629490
280.279968	-22.170498	11.758377	-18.766214
280.735840	-80.541321	-30.437096	-28.697012
281.191620	-50.727581	7.416252	25.901611
281.647400	-23.411711	-25.471273	-68.436913
282.103149	-15.343629	33.465038	58.140739
282.558838	1.409844	30.984520	43.263332
283.014465	5.752545	12.378751	-65.952469
283.470062	-27.756430	27.884098	-43.596291
283.925629	3.891465	9.277221	40.783356
284.381134	-52.590450	3.694003	-33.662971
284.836639	16.297739	-14.920359	8.534811
285.292053	34.902416	54.543709	38.303280
285.747467	-37.068123	-32.920166	-100.745567
286.202820	-78.056229	-110.568092	-65.952469
286.658142	31.182028	44.005173	-23.731337
287.113434	-36.447369	12.378751	-36.146179
287.568634	0.789355	24.783245	33.342949
288.023804	41.722565	127.022873	117.613564
288.478973	-25.894482	-40.990665	-41.112770
288.934113	-51.969532	-57.756248	-105.717812
289.389130	-27.756563	6.795825	-43.596291
289.844208	-72.465355	-44.715843	-8.837093
290.299164	-43.276558	-32.920029	-113.176849
290.754089	-53.832443	-36.023945	-51.047356
291.208984	-2.933177	48.964745	25.901611
291.663879	39.862747	42.145290	50.702496
292.118683	-78.677422	-35.403069	-60.983631
292.573456	-13.481806	28.504169	65.578049
293.028198	-18.446482	-18.644154	3.571854
293.482849	-57.558575	-48.441395	-120.636848
293.937561	-26.515261	-67.693527	-13.801512
294.392151	179.202332	274.810486	251.214935
294.846741	85.105881	105.969391	142.376602
295.301239	-68.117043	-18.644154	-28.697012
295.755737	-28.998028	2.453201	-41.112770
296.210175	-87.375824	-45.336819	-93.288139
296.664581	-38.930557	-19.264719	30.862564
297.118958	-76.192413	-49.062275	-118.150024
297.573242	-92.346786	-95.030151	-83.346344
298.027557	-1.071747	-0.648850	6.053384
298.481812	-56.937607	-39.748943	-13.801512
298.935974	11.955812	15.480118	-56.015347
299.390137	80.769104	65.700066	80.449905
299.844238	1.409979	-9.955981	-33.662971
300.298340	-1.071882	-18.644018	-6.355041
300.752350	-106.640854	-52.167183	-170.395035
301.206360	-21.549902	19.821785	-41.112770
301.660278	-27.135775	-57.756248	-46.079918
302.114197	-79.298767	-60.240337	-28.697012
302.568054	-48.864769	-73.905357	-3.873228
303.021881	-4.794666	-36.023945	11.015998
303.475677	31.181892	81.191277	60.619987
303.929413	-62.526989	-36.644695	87.884445
304.383118	91.920578	133.213318	179.502289
304.836761	-60.663799	-14.299840	23.420914
305.290375	86.345093	138.165543	90.362465
305.743958	-12.861301	-82.602768	-36.146179
306.197510	-97.939705	-70.799423	-60.983631
306.650970	57.840160	114.020370	-11.319250
307.104431	-14.722970	-16.161688	25.901611
307.557800	123.505127	133.213318	122.566933
308.011169	-60.042797	11.138131	-18.766214
308.464508	-33.343430	52.684025	-108.204094
308.917755	-35.826485	-13.679462	-58.499371
309.371063	-8.517550	-11.197070	-18.766214
309.824219	40.482697	32.844883	-33.662971
310.277374	-67.495956	-51.546135	-31.180006
310.730499	-40.172256	-7.474017	-11.319250
311.183563	62.798317	50.204578	68.056992
311.636597	-19.067181	34.705055	-60.983631
312.089569	-42.655739	-44.715977	-41.112770
312.542511	222.487366	250.100708	335.186401
312.995422	-91.725441	-59.619205	-43.596291
313.448273	54.121071	37.185280	115.136665
313.901093	18.158564	1.212373	-36.146179
314.353882	37.382496	37.185146	80.449905
314.806580	-12.240804	22.922899	68.056992
315.259308	-14.102452	21.062223	-13.801512
315.711975	-94.210983	-37.265587	-140.534988
316.164581	95.637184	126.403549	157.229538
316.617126	0.789490	21.682365	3.571854
317.069672	-53.832443	-58.377224	-16.283743
317.522156	42.342491	19.201490	-31.180006
317.974579	-83.647774	4.314461	-56.015347
318.427002	18.778736	-13.058821	-21.248791
318.879333	95.637184	130.737320	144.852386
319.331665	-38.309647	-23.609400	3.571854
319.783936	-50.727581	-49.062275	-95.773880
320.236176	-81.162552	-60.861481	-103.231636
320.688354	-44.518356	29.744425	20.940111
321.140503	-46.381023	-52.788105	28.382071
321.592651	6.372847	3.073538	38.303280
322.044647	5.132102	-16.782227	60.619987
322.496704	-30.239519	-60.861481	48.222832
322.948639	-87.375824	-78.875168	45.743065
323.400604	-2.933177	60.742020	50.702496
323.852509	71.474571	141.879562	117.613564
324.304352	-50.727448	-25.471273	-46.079918
324.756165	20.019196	57.642876	8.534811
325.207916	-43.897385	-58.998344	3.571854
325.659668	-17.205376	29.124367	-18.766214
326.111328	-10.379215	40.285355	77.971603
326.562988	0.168994	-8.714919	53.182060
327.014557	4.511921	-20.506004	6.053384
327.466156	35.522411	58.882526	73.014435
327.917664	-45.139057	-16.782227	-33.662971
328.369110	-19.687885	-36.644829	1.090354
328.820557	-14.102452	-5.612579	-31.180006
329.271942	-27.756563	-9.955981	15.978330
329.723297	-46.381023	-49.683296	-46.079918
330.174561	-20.308460	-44.095142	-36.146179
330.625854	-10.379080	-8.094464	-1.391385
331.077026	-78.056229	-31.678484	-38.629490
331.528229	15.677676	65.700203	1.090354
331.979370	7.613701	48.344891	-23.731337
332.430450	-36.447231	23.542885	75.493073
332.881500	-76.813583	-24.850508	15.978330
333.332489	23.120163	57.642876	102.750908
333.783478	131.553238	120.831261	120.090370
334.234406	-80.541321	-48.441395	-6.355041
334.685303	-8.517550	26.023716	-36.146179
335.136078	-115.964912	-63.345707	-85.831665
335.586914	-12.861437	25.403618	63.099003
336.037659	99.973167	156.732361	219.078278
336.488342	-54.453514	-37.265724	-75.891151
336.939026	-44.518356	-44.095009	68.056992
337.389648	-50.727715	-41.611465	-11.319250
337.840240	-40.172256	14.859776	65.578049
338.290771	-6.656078	-32.299458	53.182060
338.741272	14.436991	71.277336	20.940111
339.191681	48.542068	65.080254	132.472565
339.642120	39.242661	83.050087	55.661381
340.092468	-1.071882	32.224857	45.743065
340.542816	-98.561119	-62.724674	-43.596291
340.993103	11.335434	21.682365	-8.837093
341.443329	-41.413986	12.378751	3.571854
341.893555	-87.375824	-4.992022	-48.563652
342.343689	-40.793053	-40.369736	-51.047356
342.793793	-61.284813	-39.128029	-31.180006
343.243866	-42.655605	-95.651527	25.901611
343.693878	-27.135775	-25.471273	-36.146179
344.143890	-48.243893	-16.161552	-88.317093
344.593842	97.495270	71.896957	102.750908
345.043732	30.561850	50.824551	48.222832
345.493591	22.500036	92.342682	43.263332
345.943359	-4.173983	-15.541019	-23.731337
346.393158	-48.243755	-51.546135	-65.952469
346.842896	-27.756699	3.073673	-51.047356
347.292542	-17.205376	4.314461	-26.214121
347.742218	-66.874886	-54.030098	-41.112770
348.191803	-130.264847	-61.482494	-63.467995
348.641357	-66.874748	-18.023460	-70.921593
349.090881	-56.316368	-42.853222	-90.802628
349.540314	-73.707634	-26.092045	-60.983631
349.989777	6.372847	12.998983	-56.015347
350.439148	-71.844093	-29.195601	-33.662971
350.888489	-71.222832	-58.377090	-41.112770
351.337799	-2.933177	76.854218	82.928230
351.787048	-136.483276	-30.437096	-80.861267
352.236267	-19.067181	-36.024082	-56.015347
352.685425	-66.874748	11.138131	-3.873228
353.134552	-72.465218	-34.161469	-53.531300
353.583649	-21.549633	40.285355	20.940111
354.032684	-51.348621	47.724892	-58.499371
354.481659	13.196414	96.678894	43.263332
354.930634	10.094927	48.344891	13.497216
355.379517	-19.067316	2.453201	30.862564
355.828430	-14.723104	36.565304	90.362465
356.277222	-92.968124	-93.787140	-23.731337
356.726013	-46.381023	-44.715843	-63.467995
357.174774	-43.897385	10.517744	58.140739
357.623444	-22.791101	4.934778	58.140739
358.072113	-1.071882	-19.885426	15.978330
358.520721	-95.453865	-49.062275	-13.801512
358.969299	-52.590450	-13.679327	-36.146179
359.417786	-88.618416	-7.474017	-120.636848
359.866302	43.582592	101.014526	142.376602
360.314697	-65.632614	-42.232407	-68.436913
360.763123	-31.481035	36.565170	65.578049
361.211456	1.409709	-1.269226	58.140739
361.659760	-29.618837	-1.889743	15.978330
362.108032	-15.964294	35.325188	55.661381
362.556244	-78.056229	-24.850641	8.534811
363.004456	-63.769192	-45.336819	-38.629490
363.452576	42.342625	38.425358	75.493073
363.900696	-71.844093	-25.471273	-56.015347
364.348663	-38.309647	30.364477	-78.376152
364.796722	-49.485657	21.682501	20.940111
365.244690	-28.377361	1.832723	-78.376152
365.692596	-51.969532	26.643805	-70.921593
366.140472	-6.655943	21.682365	-8.837093
366.588287	-83.647774	-9.335649	45.743065
367.036102	-66.874886	-22.367914	-1.391385
367.483826	-78.056229	-55.272121	-152.974731
367.931549	-45.760174	4.314326	-53.531300
368.379181	24.360531	53.923775	-28.697012
368.826843	-64.390236	-40.990665	-140.534988
369.274384	-114.100014	-48.441395	-123.123772
369.721924	0.168994	45.245239	77.971603
370.169403	19.399036	71.897224	129.996414
370.616821	6.372847	24.783245	-8.837093
371.064270	35.522411	29.124233	6.053384
371.511566	-32.101738	-28.574795	-18.766214
371.958923	19.398766	47.105022	87.884445
372.406158	-25.894482	17.340969	-48.563652
372.853424	-2.312784	-41.611599	-53.531300
373.300568	4.511921	65.080254	-16.283743
373.747711	18.778736	28.504169	105.228180
374.194794	-51.348488	-20.506004	-6.355041
374.641846	-71.844093	-6.233006	-90.802628
375.088898	-50.727448	-1.889743	-23.731337
375.535828	61.558887	70.657715	60.619987
375.982758	-62.526852	-14.920494	-58.499371
376.429596	-10.379215	78.713150	115.136665
376.876465	-12.240669	77.474045	-13.801512
377.323242	-42.655739	22.922764	38.303280
377.769989	18.778736	61.981472	-65.952469
378.216675	-50.727581	12.999119	1.090354
378.663330	-48.243893	-3.751199	-36.146179
379.109985	-91.103966	-1.269361	-68.436913
379.556519	137.743484	152.400986	115.136665
380.003052	8.854260	77.473778	18.459339
380.449524	-34.584877	24.163137	-6.355041
380.895996	-85.511566	-18.644018	-95.773880
381.342377	-31.480902	12.378751	-26.214121
381.788727	-68.117043	-1.269361	-16.283743
382.235046	-74.328918	9.277085	-115.663452
382.681274	33.042252	109.685127	68.056992
383.127533	-84.269035	-34.161606	-13.801512
383.573669	0.789355	48.964745	55.661381
384.019836	28.701414	66.319748	82.928230
384.465912	-77.435043	28.504169	-13.801512
384.911957	20.639347	9.277221	13.497216
385.357971	-66.253677	12.378751	-46.079918
385.803925	-82.405151	-68.935844	-120.636848
386.249847	-18.446617	8.656815	11.015998
386.695679	-7.897098	61.361752	45.743065
387.141541	-72.465218	34.705055	-31.180006
387.587311	40.482697	72.516838	-33.662971
388.033051	-16.584831	33.465038	18.459339
388.478729	-26.515261	55.163502	40.783356
388.924408	-74.328781	23.543020	-13.801512
389.369995	-57.558575	54.543709	-13.801512
389.815552	-106.019356	6.175528	-51.047356
390.261078	16.918066	81.191277	33.342949
390.706543	65.897194	169.107361	204.240067
391.152008	-112.235168	-1.269361	13.497216
391.597351	-73.707634	17.340969	-6.355041
392.042725	-61.284950	21.682365	53.182060
392.487976	-34.584877	49.584732	18.459339
392.933289	-109.748711	54.543709	-93.288139
393.378479	-17.205376	84.289337	68.056992
393.823639	6.372847	162.301636	20.940111
394.268768	-48.864769	91.103859	-11.319250
394.713837	49.162060	170.963470	139.900711
395.158905	-64.390236	94.201408	90.362465
395.603851	-48.243755	58.882664	50.702496
396.048798	-83.026390	57.643013	48.222832
396.493683	23.120163	105.969666	105.228180
396.938568	27.461271	120.212143	53.182060
397.383392	64.657684	157.351379	219.078278
397.828156	-27.135908	55.783291	20.940111
398.272888	-82.405151	85.528297	-43.596291
398.717560	-100.425652	50.204712	1.090354
399.162201	-50.106819	65.080254	100.273399
399.606781	-91.725441	57.023247	55.661381
400.051361	-68.738136	73.756042	-18.766214
400.495819	-62.527122	110.304359	87.884445
400.940308	-22.170364	88.006416	33.342949
401.384705	26.220966	183.335327	117.613564
401.829102	6.993278	215.490646	90.362465
402.273438	-38.930557	152.400711	6.053384
402.717682	-130.264847	86.147774	58.140739
403.161926	-96.696632	123.307922	-31.180006
403.606110	-68.738266	170.963211	30.862564
404.050293	-3.553577	264.927643	152.279007
404.494385	-62.527122	283.456299	191.872437
404.938446	-101.668533	287.779022	147.327927
405.382477	-67.495956	250.718521	122.566933
405.826447	-42.034927	232.798111	199.293472
406.270386	-66.253677	170.344604	152.279007
406.714233	20.639482	277.280701	152.279007
407.158081	-24.032461	193.230957	117.613564
407.601868	-94.210846	181.479614	154.754395
408.045624	2.650667	274.192657	236.384460
408.489319	-22.791101	228.471558	211.659607
408.933014	28.081347	232.797836	219.078278
409.376617	-63.769192	187.046341	164.654785
409.820190	-38.309784	191.994202	216.605484
410.263702	-32.101738	287.779022	189.398560
410.707184	-53.832581	215.490646	120.090370
411.150635	-56.937336	174.056671	134.948761
411.594025	-41.413849	241.450012	100.273399
412.037384	-63.148022	202.506989	95.318199
412.480682	-73.707771	227.853531	167.129654
412.923981	-87.997116	230.943878	100.273399
413.367126	-43.276558	225.381363	68.056992
413.810333	-78.677422	201.270142	127.520020
414.253479	-38.309784	229.089844	68.056992
414.696533	-38.309647	227.235504	172.078857
415.139587	-36.447231	174.675247	152.279007
415.582581	91.920311	393.897888	335.186401
416.025543	5.752545	241.449738	139.900711
416.468414	-73.707771	262.456696	80.449905
416.911285	-71.222832	183.953812	70.535698
417.354065	157.548203	453.049957	411.651123
417.796875	-53.211514	182.716843	122.566933
418.239594	-101.047089	214.872208	122.566933
418.682281	41.722698	322.966034	172.078857
419.124908	-60.663799	253.189941	95.318199
419.567505	68.995773	406.225708	288.274841
420.010071	-94.211121	238.978119	201.766953
420.452545	-44.518356	342.094696	184.450760
420.895020	-101.047089	249.482910	144.852386
421.337372	-9.138008	376.634827	275.923981
421.779785	132.172226	461.671783	396.858704
422.222107	151.978760	510.302032	436.297791
422.664368	-36.447369	348.880768	238.856445
423.106628	6.372847	358.750366	181.976578
423.548798	-26.515261	332.839722	204.240067
423.990967	-64.390373	344.562500	172.078857
424.433044	-50.727715	378.484772	283.334991
424.875092	-22.791101	387.733093	248.743423
425.317078	-5.415085	316.794312	209.186523
425.759064	-35.826351	363.684357	169.604172
426.200989	-68.116913	298.892883	246.271851
426.642853	-27.135908	409.923492	221.550690
427.084686	47.302208	451.818298	290.744781
427.526459	-77.435043	393.281219	231.440445
427.968201	-60.042797	384.650482	209.186523
428.409912	-79.298767	354.432556	149.803528
428.851563	-27.135908	416.086182	204.240067
429.293121	-98.561119	398.212769	243.800140
429.734711	-56.316639	400.678406	221.550690
430.176239	-47.002022	383.417480	204.240067
430.617706	-27.756563	400.062073	308.031311
431.059113	-94.832489	416.086182	154.754395
431.500488	-104.776123	378.484497	206.713348
431.941833	-96.696632	404.993134	246.271851
432.383087	-86.754395	392.665100	167.129654
432.824341	10.094927	462.287506	332.718231
433.265533	-107.262360	434.570862	256.157379
433.706726	-55.074596	445.043152	317.907349
434.147827	-59.421799	496.147583	219.078278
434.588867	-38.930557	488.146088	273.453491
435.029877	-55.074463	701.396545	411.651123
435.470825	-74.328918	908.471985	460.934784
435.911804	-65.011421	1106.398682	750.957397
436.352661	-68.117043	1203.941040	733.787659
436.793518	-10.379215	1126.527344	657.698120
437.234283	6.372982	902.966064	615.934814
437.675049	-127.777603	642.467773	342.590118
438.115723	-17.205376	675.621826	377.130005
438.556396	-51.969532	653.520935	335.186401
438.997040	21.879633	729.615173	534.790100
439.437561	40.482697	758.435120	465.861145
439.878113	-66.253677	658.432922	386.995239
440.318573	-58.800674	702.623840	520.025757
440.759033	70.235184	752.304565	566.768066
441.199341	0.169129	706.918823	534.790100
441.639709	-133.995895	609.297607	288.274841
442.079956	-39.551472	653.520630	426.440155
442.520264	-87.997116	576.725281	436.297791
442.960510	-58.800541	586.560181	399.324402
443.400604	13.196414	644.310181	406.720612
443.840759	-60.663937	517.685852	310.500488
444.280762	-83.026390	524.453369	268.512421
444.720825	-9.758609	594.549744	256.157379
445.160767	-27.756430	599.466003	335.186401
445.600739	-89.239861	587.789368	411.651123
446.040558	-56.316368	663.344299	426.440155
446.480438	-58.179554	720.414856	426.440155
446.920258	-67.495956	787.855896	510.180847
447.359955	-48.864769	773.759827	475.712494
447.799713	-93.589485	792.758179	495.410980
448.239319	-73.086494	904.189514	468.324188
448.678955	-84.890434	976.342041	645.417358
449.118500	-48.864906	1065.514160	692.071838
449.558014	-13.481806	1121.038208	738.693848
449.997498	-97.318169	1225.261108	743.599609
450.436951	-57.558575	1191.146118	699.435181
450.876343	-126.534035	1284.317261	770.574707
451.315674	18.778870	1283.708374	897.951111
451.754974	-65.632614	1179.567749	679.797363
452.194183	19.398901	1227.088745	780.381165
452.633392	-90.482498	1089.315308	760.766907
453.072510	-28.998163	1069.786377	660.153748
453.511688	-67.495956	959.227478	569.227356
453.950684	41.102768	1085.043945	655.242126
454.389740	-27.756563	1081.992554	750.957397
454.828735	41.722565	1124.697632	753.409912
455.267639	-62.527122	983.675293	647.873718
455.706543	-7.897098	982.453247	628.220764
456.145325	-31.481035	889.505737	665.065247
456.584137	168.066635	980.619812	785.283997
457.022858	-85.511703	707.532288	382.062805
457.461578	-24.032326	691.578735	382.062805
457.900208	-69.359367	632.641357	379.596466
458.338867	-39.551472	619.127197	463.398010
458.777405	-71.222969	621.584778	374.663452
459.215912	-33.964012	625.884888	404.255463
459.654388	36.762524	700.169495	520.025757
460.092773	-66.253677	585.331055	382.062805
460.531189	-111.613472	555.821533	327.781555
460.969513	-26.515123	615.441467	470.787140
461.407806	-50.106548	649.836853	436.297791
461.846008	-60.042797	749.238647	433.833557
462.284241	-88.618553	721.028198	475.712494
462.722351	-99.804230	835.637390	527.408203
463.160461	-64.390373	854.618225	559.389771
463.598541	-61.284813	950.668884	524.947388
464.036530	-47.623020	1028.881104	657.698120
464.474518	-59.421665	1131.406372	652.786072
464.912384	-102.911713	1233.178589	773.026550
465.350281	-55.695549	1478.814087	983.554993
465.788086	-26.515123	1834.345947	1169.086426
466.225891	-115.343185	2210.011475	1332.259888
466.663605	-89.239861	2719.976807	1662.411865
467.101318	-24.032326	3171.811035	1938.109131
467.539001	-73.707771	3211.700928	2049.096436
467.976563	-27.756699	3311.652588	2010.508911
468.414124	-74.950081	3015.072510	1865.646606
468.851593	-57.558575	2721.771484	1655.143921
469.289063	-32.101871	2485.749512	1616.370850
469.726440	-84.269035	2243.097168	1402.777954
470.163849	-117.829880	2038.967163	1100.787964
470.601135	-30.239384	1978.055420	1254.370728
471.038422	-108.505386	1775.098389	1147.140381
471.475677	-25.894482	1700.071045	1042.195313
471.912811	-101.047089	1522.508545	988.443542
472.350006	-62.526989	1467.279541	831.842590
472.787048	-92.968124	1314.131714	795.088318
473.224121	10.715184	1216.125000	804.891479
473.661072	-135.861450	1029.492065	620.849548
474.098053	-45.139194	1143.601929	723.974548
474.534943	-50.727715	1142.992065	719.067383
474.971802	-110.370247	1246.575439	799.990051
475.408630	-50.106682	1407.758301	927.312866
475.845367	-40.172256	1379.803833	915.080200
476.282104	-91.103966	1102.128296	706.798035
476.718750	-106.019226	871.146179	451.081177
477.155426	110.501602	833.188110	559.389771
477.591949	-22.791101	553.976685	312.969543
478.028503	-14.723104	458.592682	312.969543
478.464966	-67.495956	334.690674	194.346207
478.901428	-35.205746	339.626770	191.872437
479.337860	-103.533173	303.831543	142.376602
479.774170	-68.117043	251.954376	152.279007
480.210510	-22.170498	293.336182	154.754395
480.646698	-61.905830	240.213959	139.900711
481.082947	-92.346786	219.817825	85.406456
481.519073	-59.421665	247.629166	199.293472
481.955200	-111.613609	230.943878	112.659798
482.391266	-44.518356	251.954376	159.704727
482.827301	-85.511703	221.672668	77.971603
483.263306	57.840160	368.618195	261.099701
483.699188	49.781906	371.701874	194.346207
484.135101	95.017815	383.417206	386.995239
484.570923	-7.276517	284.074036	169.604172
485.006744	-62.527122	278.516022	115.136665
485.442413	-103.533173	285.926697	196.819885
485.878174	102.450417	472.755310	325.313080
486.313782	-17.205376	356.283112	144.852386
486.749390	3.891465	365.534668	164.654785
487.184998	-66.253677	360.600586	162.179810
487.620453	-51.969532	340.243683	219.078278
488.055939	-74.949944	359.983826	246.271851
488.491333	-151.410294	389.582428	310.500488
488.926727	-73.707497	458.592682	256.157379
489.362030	8.233849	560.740479	362.329529
489.797302	-65.011284	513.993896	293.214630
490.232513	13.816773	664.571960	436.297791
490.667755	-55.695412	670.711060	322.844513
491.102905	26.841055	909.695251	529.868896
491.537964	-68.117180	932.325745	492.948944
491.973022	10.715184	1008.725464	760.766907
492.407990	1.409844	996.507080	736.240784
492.842957	52.261372	934.771362	638.048096
493.277832	-47.623020	905.413269	490.487122
493.712738	-51.969532	938.440491	630.677734
494.147491	-76.192413	1020.331360	559.389771
494.582275	-97.939575	1192.973877	731.334473
495.017029	36.142403	1478.814087	951.771362
495.451660	-5.415085	1787.193115	1073.938843
495.886292	-66.874748	2411.341553	1402.777954
496.320831	-33.964012	3375.260498	1974.316772
496.755402	20.639347	5102.464844	2798.201904
497.189850	-76.192543	7667.284180	4248.631836
497.624298	23.120163	11167.207031	6478.448730
498.058655	11.955812	15134.581055	9462.940430
498.493042	-39.551472	17458.359375	11084.882813
498.927368	-81.783775	18107.664063	11567.523438
499.361572	116.694008	16200.772461	10596.301758
499.795807	39.242661	12836.572266	8197.282227
500.229919	-6.035646	9596.446289	6128.628906
500.664063	10.715184	7121.786133	4477.078125
501.098083	-71.844093	5177.901367	3203.844727
501.532104	-53.211380	3786.864258	2337.956543
501.966064	-37.068123	2987.035645	1853.563477
502.399994	-44.518219	2252.118652	1463.517578
502.833893	-65.011421	1795.658325	1103.228271
503.267700	-130.886597	1370.686401	824.493469
503.701477	-19.067316	1226.479492	848.987793
504.135193	-62.526852	1059.410034	667.520813
504.568909	-71.222832	920.705566	556.930481
505.002502	-51.348621	904.801208	556.930481
505.436127	2.030191	795.821594	544.631042
505.869629	-29.618837	751.691223	520.025757
506.303162	15.677541	737.587952	382.062805
506.736603	-57.558575	675.007751	401.789978
507.169983	-61.284950	593.320679	421.511047
507.603363	-71.843956	610.526306	283.334991
508.036621	-50.727581	566.888855	382.062805
508.469940	40.482697	621.584778	394.392914
508.903107	80.149307	677.463013	524.947388
509.336304	-75.571236	507.225250	280.864746
509.769379	-64.390236	554.591553	211.659607
510.202484	22.499901	587.789368	386.995239
510.635529	-61.284950	495.532166	221.550690
511.068481	-92.346786	474.602203	258.628571
511.501434	24.360531	649.836548	359.862396
511.934265	-109.748711	533.680786	263.570709
512.367126	68.995903	686.055542	559.389771
512.799927	-119.695045	483.836975	283.334991
513.232605	-135.239502	557.051270	293.214630
513.665344	-72.465218	674.393982	458.471436
514.097961	21.879904	1220.997681	711.705872
514.530579	-79.298897	2272.563477	1105.668579
514.963135	-53.211514	3766.145752	2227.339844
515.395691	-1.071747	5066.775879	3387.028320
515.828064	-86.754395	5377.079590	3581.743652
516.260498	-80.541321	4608.280762	2996.463379
516.692871	-39.551338	3265.259033	2053.918945
517.125183	75.192589	2232.872070	1541.194580
517.557373	-42.655739	1405.935669	949.325806
517.989624	75.192589	1155.186035	792.637573
518.421753	-45.139194	898.683594	576.604248
518.853943	-125.290482	695.874390	349.993225
519.286072	-50.106682	625.270386	428.904724
519.718018	-34.584877	574.880981	478.175140
520.150024	-110.370384	464.750977	273.453491
520.581909	-0.451508	563.815002	268.512421
521.013855	-77.434906	514.609131	288.274841
521.445679	-79.919968	454.897675	258.628571
521.877502	-57.558575	470.292419	228.968155
522.309204	0.789355	499.224884	290.744781
522.740906	-21.549767	467.213776	330.249939
523.172546	-75.571236	458.592682	256.157379
523.604187	-101.668533	426.561462	258.628571
524.035767	-48.243755	492.454407	275.923981
524.467224	-120.316826	425.329315	177.027924
524.898682	-18.446482	500.455933	228.968155
525.330078	-18.446617	490.608032	288.274841
525.761475	-54.453514	431.490479	298.153992
526.192749	-84.890564	456.129303	251.214935
526.624023	-75.571236	440.731140	238.856445
527.055237	-42.034927	542.906921	216.605484
527.486389	-7.897098	472.755310	251.214935
527.917542	0.168994	557.666382	340.122192
528.348572	-20.308460	514.609131	261.099701
528.779663	-94.210983	478.911957	320.376129
529.210571	-43.897385	546.597229	273.453491
529.641541	-16.584696	544.137146	340.122192
530.072388	-58.800674	513.994141	275.923981
530.503235	25.600739	606.839844	394.392914
530.934082	-55.695412	480.143127	221.550690
531.364746	-38.930557	454.897675	330.249939
531.795532	-15.343629	513.378662	261.099701
532.226135	-56.937607	475.218109	362.329529
532.656738	-60.042664	541.676941	327.781555
533.087280	116.074844	640.011230	527.408203
533.517822	21.259493	539.216675	386.995239
533.948242	13.816639	583.486755	446.153656
534.378662	-75.571236	489.992584	322.844513
534.809082	-18.446482	585.330811	386.995239
535.239319	28.701548	593.320679	485.562622
535.669617	0.789490	620.356018	389.461060
536.099792	-82.405281	515.224670	337.654510
536.529968	-109.127182	501.686676	305.562073
536.960083	-58.800674	539.831970	285.805084
537.390137	33.042252	671.938904	456.008301
537.820190	-98.561119	573.651611	354.928131
538.250183	-90.482498	513.993896	312.969543
538.680115	-114.100014	536.756348	335.186401
539.109985	179.820831	772.534119	527.408203
539.539795	-42.034794	551.517151	300.623535
539.969543	-70.601578	583.487061	369.730347
540.399292	-53.832443	556.436401	342.590118
540.828979	44.822399	746.172913	500.334717
541.258606	-49.485657	619.127441	268.512421
541.688171	-75.571236	569.963074	367.263489
542.117737	-20.308460	673.166443	423.975525
542.547302	-38.309784	659.046814	394.392914
542.976685	-99.804092	623.427490	421.511047
543.406128	1.409709	704.464661	505.258118
543.835388	-92.346786	681.759277	391.927032
544.264771	-112.235168	703.850891	379.596466
544.693970	-125.290619	783.566040	468.324188
545.123230	-60.663799	1224.652100	579.063110
545.552307	-94.832489	2165.476074	1152.017822
545.981506	83.866913	3133.692139	1998.446411
546.410583	-77.434906	3624.553467	2357.179932
546.839539	-116.586655	3451.300049	2277.855957
547.268555	88.203735	2786.961426	1797.958130
547.697449	167.448273	2249.111572	1589.703613
548.126282	-93.589485	1710.966187	1007.994385
548.555054	-81.783775	1611.036255	959.107422
548.983887	-27.756563	1625.579224	875.922058
549.412598	-17.205376	1752.113525	1086.144165
549.841309	150.122086	2002.183838	1371.174438
550.269958	-30.860342	1997.359009	1193.463501
550.698486	-10.999694	2142.598145	1286.022949
551.127075	38.002605	2346.485352	1521.782349
551.555481	-86.133110	2323.053223	1405.208374
551.983948	-109.748711	2462.953613	1439.227295
552.412292	-18.446753	2584.664795	1580.004272
552.840698	-31.481035	2780.384766	1546.046875
553.268860	-22.791101	2847.325928	1693.898193
553.697205	-94.832489	2846.729248	1708.426147
554.125366	12.576184	2867.041748	1892.223633
554.553467	-99.803955	2669.108154	1669.678833
554.981628	-63.148155	2697.239014	1662.411865
555.409607	8.233849	2609.825928	1616.370850
555.837646	-122.803596	2626.596680	1609.098999
556.265564	-33.343430	2709.805176	1720.530762
556.693481	-40.172256	2718.780273	1696.319702
557.121338	-65.011421	2719.976318	1621.218628
557.549133	-118.451645	2845.534180	1836.644043
557.976929	-47.001884	2970.925537	1810.049438
558.404602	64.657684	3275.372070	2020.157349
558.832275	-69.980469	3223.604980	2010.508911
559.259888	-83.647774	3325.329102	2034.628174
559.687439	-7.276517	3612.696289	2210.494873
560.114929	-117.208260	3578.894775	2220.120850
560.542419	-78.677422	3802.845459	2227.339844
560.969788	-68.117180	3851.955811	2431.631836
561.397156	-70.601715	3949.518066	2525.210449
561.824524	-82.405014	4100.711914	2390.811035
562.251770	-17.205376	4327.697266	2544.394043
562.679016	-109.748711	4430.718750	2606.713135
563.106140	6.993278	4640.000977	2865.131348
563.533264	61.559021	5011.759766	2979.758301
563.960327	-85.511703	5169.716797	3094.249268
564.387329	-73.086357	5649.312500	3382.274658
564.814331	-53.211514	6179.771973	3709.770508
565.241272	-68.117043	7037.169922	4187.317871
565.668213	8.233984	8509.212891	4934.927734
566.094971	-42.034927	10610.441406	6244.572266
566.521790	-39.551472	13611.235352	8057.955078
566.948425	-127.777603	17820.742188	10562.627930
567.375183	-26.515123	23518.988281	13789.893555
567.801819	-47.622887	33349.855469	18868.310547
568.228394	-60.663799	47447.214844	26853.568359
568.654846	-65.011421	60736.000000	37544.363281
569.081421	4.511786	69239.468750	45457.488281
569.507874	-4.174253	68930.039063	45572.195313
569.934265	-40.172256	59939.019531	38973.515625
570.360596	-41.413986	47790.046875	30131.910156
570.786865	-92.346786	36274.878906	22358.802734
571.213074	-74.328781	27637.892578	16690.490234
571.639282	-101.668671	21690.035156	12812.640625
572.065430	-57.558575	17485.144531	10220.975586
572.491516	-75.571373	14236.351563	8119.641602
572.917603	-18.446617	12078.380859	6993.287598
573.343567	-123.425270	10575.085938	6293.236328
573.769531	-89.861183	9704.877930	5815.032715
574.195435	81.388618	9405.925781	5740.581055
574.621277	-74.328781	8884.497070	5316.253906
575.047119	-60.042797	8765.766602	5495.960938
575.472839	-102.911575	8904.935547	5323.260254
575.898560	112.978691	9121.081055	5572.895020
576.324158	-65.011559	9310.851563	5570.564453
576.749817	5.132102	9770.916016	5791.771973
577.175293	-39.551472	10119.228516	6175.019531
577.600830	-111.613472	10313.318359	6237.619141
578.026306	99.973167	11047.504883	6686.483887
578.451721	-2.933177	11310.847656	6896.481934
578.877136	-118.451645	11852.432617	7340.723145
579.302429	-12.240669	12519.454102	7755.957031
579.727661	26.841055	13623.377930	8119.641602
580.152832	-74.950081	14196.157227	8666.731445
580.578064	-94.210983	15170.806641	9290.925781
581.003113	-92.346786	16083.042969	9433.532227
581.428223	-23.411711	16975.574219	10209.723633
581.853271	-11.620314	18278.169922	11138.579102
582.278198	-20.929043	19660.087891	12097.738281
582.703125	-68.117180	21326.343750	12755.013672
583.127930	-5.415085	23196.177734	13939.867188
583.552795	52.881325	25266.839844	15518.510742
583.977539	-46.381023	27294.552734	16460.677734
584.402283	-109.748711	30079.716797	17978.580078
584.826965	-25.273848	32909.675781	19323.130859
585.251587	-42.034927	35631.546875	21394.785156
585.676208	-58.179688	38124.824219	23115.679688
586.100647	-88.618416	40294.089844	24399.357422
586.525208	8.854260	41291.367188	25492.005859
586.949524	-74.950081	40097.328125	24722.001953
587.373962	-88.618416	35964.843750	22541.296875
587.798218	-45.760036	29007.482422	18306.480469
588.222534	3.271002	21014.974609	13208.937500
588.646729	-147.056305	14527.998047	8666.731445
589.070984	-107.262497	9747.779297	5582.217285
589.495117	-96.696907	6916.193848	3795.034912
589.919128	-53.832443	5177.317383	2881.856201
590.343201	-17.825926	4545.989746	2443.634521
590.767151	-109.748711	4788.497070	2479.633057
591.191101	-11.620044	6521.931641	3512.923340
591.614990	-40.793053	9513.937500	5232.141602
592.038818	-92.968124	13500.263672	7941.356445
592.462524	-79.298630	18327.355469	11019.973633
592.886292	-32.101738	23336.621094	13961.914063
593.310059	-21.549767	27690.685547	16937.732422
593.733582	-78.056229	31165.152344	19264.083984
594.157227	-53.832443	34126.378906	21151.341797
594.580750	-77.435043	36052.320313	22739.271484
595.004272	-111.613472	37991.023438	23573.994141
595.427673	-47.001884	39186.089844	24255.794922
595.851074	-79.298630	40047.910156	24706.527344
596.274353	-16.584831	41244.722656	25275.031250
596.697632	-83.026527	40954.667969	25259.537109
597.120911	26.220966	40762.222656	25005.066406
597.544067	34.282410	40475.441406	24505.406250
597.967224	-42.034927	39824.089844	24145.394531
598.390320	-2.933177	39057.238281	23485.816406
598.813354	132.172501	38726.328125	23388.843750
599.236328	-110.370247	38033.769531	22789.880859
599.659241	-11.620178	37186.992188	22193.962891
600.082153	-88.618416	36206.226563	22143.425781
600.505005	-86.133110	35599.988281	21633.957031
600.927795	-51.348621	34537.089844	21052.681641
601.350525	-50.727715	33962.812500	20842.265625
601.773254	-34.584877	32700.328125	19614.041016
602.195862	-112.856728	32220.357422	19139.435547
602.618408	-58.179688	31569.451172	18811.466797
603.040955	-53.832310	30859.214844	18536.013672
603.463440	-38.309647	29843.220703	18140.345703
603.885925	-121.559998	29327.398438	17521.660156
604.308350	-4.174253	28212.103516	17156.466797
604.730652	-102.911575	27566.767578	16937.732422
605.152893	-83.026390	26828.144531	16296.472656
605.575195	-104.154648	26016.140625	15676.404297
605.997375	-87.375824	25530.318359	15529.478516
606.419495	-65.632614	24804.468750	15231.067383
606.841553	-58.800808	24478.998047	14851.106445
607.263672	-115.343315	23817.234375	14690.641602
607.685608	28.081480	23377.933594	14558.687500
608.107605	-40.793053	22489.177734	14028.044922
608.529480	-98.561119	22169.900391	13717.078125
608.951294	45.442566	21499.107422	13073.971680
609.373108	-98.561119	21432.734375	12657.453125
609.794800	-101.047089	20695.019531	12515.460938
610.216553	-79.298767	20561.390625	12108.860352
610.638123	-52.590588	20062.175781	12331.157227
611.059753	-47.622887	19649.150391	11966.447266
611.481262	-57.558575	19179.451172	11525.125000
611.902832	-71.844093	18621.376953	10990.869141
612.324219	-68.738266	18296.205078	11040.120117
612.745605	-55.695549	18117.500000	11178.839844
613.166931	-42.034794	17714.166016	11120.681641
613.588196	-49.485657	17380.185547	10710.738281
614.009460	-33.343292	17049.949219	10400.887695
614.430664	-95.453865	17318.957031	10643.432617
614.851807	-38.309784	18833.984375	11091.594727
615.272827	-28.998028	21442.060547	12653.018555
615.693909	-73.086357	25117.457031	15072.987305
616.114929	3.271002	27360.095703	16771.453125
616.535889	-68.738136	27099.621094	17023.044922
616.956787	-97.318169	24461.322266	15439.540039
617.377563	23.120028	21030.869141	13025.273438
617.798340	-24.653084	18391.294922	11214.619141
618.219055	-89.861183	16584.457031	9754.439453
618.639832	-78.056229	15450.071289	8998.471680
619.060364	-27.756699	14448.789063	8443.604492
619.481018	-40.172256	13846.251953	8124.210449
619.901611	-95.453865	13190.243164	7707.848633
620.322083	-63.148155	12607.100586	7781.150879
620.742493	-86.754395	12178.467773	7540.476074
621.162842	-70.601578	11741.021484	6806.525879
621.583191	-83.647774	11514.631836	6728.049805
622.003418	-66.874748	11189.012695	6794.988770
622.423706	-6.655943	10981.462891	6739.593750
622.843872	-9.758609	10709.166016	6785.757324
623.264038	-10.379080	10513.897461	6367.354004
623.684143	-129.643097	10189.016602	6123.988770
624.104126	-62.526989	10153.564453	6191.252441
624.524170	-8.517550	10013.919922	5824.336426
624.944031	-49.485657	9794.048828	5912.682617
625.364014	-28.998028	9619.042969	5915.006836
625.783752	-25.273848	9381.597656	5652.108887
626.203552	-22.791101	9164.156250	5500.624512
626.623230	-37.688881	9028.651367	5208.765625
627.042969	34.902416	9042.832031	5360.622070
627.462585	-33.964149	8779.973633	5190.062500
627.882141	-78.677422	8609.389648	5222.791504
628.301697	-79.298630	8387.307617	4859.919922
628.721130	140.838638	8510.351563	5061.394531
629.140625	-112.235168	8212.801758	4956.015625
629.559998	-6.656078	8075.776367	4817.706055
629.979309	-6.035646	7931.174805	4782.516113
630.398560	-44.518356	7829.344238	4629.899902
630.817810	-94.210983	7660.981445	4505.307129
631.237000	-89.861183	7585.893066	4453.548828
631.656067	-86.754395	7636.911621	4561.743164
632.075195	-93.589622	7385.634277	4399.412109
632.494202	-122.181793	7258.089355	4328.759277
632.913208	-101.047089	7202.319824	4361.736328
633.332092	-33.343430	7124.086914	4137.770508
633.750977	-42.655739	7005.496582	4220.337402
634.169739	-119.073410	6898.901367	4133.050781
634.588562	-133.995895	6718.350586	3903.883545
635.007263	-38.930557	6708.537109	4050.417969
635.425964	-31.481035	6510.368164	3936.989502
635.844543	-49.485657	6541.586914	3783.196533
636.263123	-43.276558	6437.491699	3922.802734
636.681641	-48.864769	6388.305664	3795.034912
637.100037	-73.086494	6295.667969	3750.042725
637.518494	-1.692262	6233.677246	3894.422607
637.936829	-34.584877	6181.511719	3750.042725
638.355164	6.993278	6292.771484	3593.604736
638.773438	42.342625	5993.531738	3662.371826
639.191650	-89.861183	5922.674316	3363.257324
639.609863	-120.316689	5901.757324	3306.183105
640.027893	-35.826351	5747.676758	3239.556396
640.445984	-55.074463	5677.258789	3325.211426
640.863953	-9.138008	5649.894531	3182.411865
641.281921	-101.047089	5634.171875	3227.653564
641.699829	-117.208260	5472.752441	3218.131104
642.117676	-14.102452	5521.725586	3230.034668
642.535461	-74.949944	5414.424805	3130.000732
642.953247	-25.894482	5402.171875	3194.319336
643.370972	20.639347	5377.079102	3201.463867
643.788635	-86.133110	5251.537109	3063.254883
644.206177	-38.309784	5151.007324	3041.791016
644.623718	44.202633	5170.302246	3153.827148
645.041260	-88.618416	5052.146973	3008.393555
645.458618	-43.276558	5053.316895	2951.114502
645.876099	-50.106548	5047.464844	2953.501465
646.293396	-12.240804	4921.569336	2896.189697
646.710693	-115.964912	4907.506836	2946.339600
647.127991	-129.021210	4862.379395	2800.593506
647.545166	-63.769192	4886.410645	2836.453125
647.962341	-79.920113	4717.500977	2793.419922
648.379333	-137.105225	4635.302246	2649.832520
648.796448	-140.214722	4542.462402	2707.293701
649.213379	-74.328918	4578.314941	2721.653809
649.630310	-68.738266	4551.279785	2582.749268
650.047180	-54.453514	4400.116699	2589.938965
650.463989	-66.874748	4320.628906	2645.042480
650.880859	-12.240669	4322.985352	2486.830811
651.297546	-102.290115	4245.801270	2482.032227
651.714233	-12.861301	4211.020508	2501.225342
652.130859	-15.343629	4127.266113	2479.633057
652.547485	-106.019226	3978.473877	2330.746338
652.963928	-20.308460	4143.786621	2441.234375
653.380432	-48.243893	4033.999756	2489.229736
653.796814	-83.647774	4025.140869	2458.035645
654.213196	-83.026527	4150.865723	2402.819092
654.629578	-38.309647	4193.920898	2441.234375
655.045837	-29.618704	4175.638672	2553.984375
655.462036	-82.405151	4167.971680	2441.234375
655.878174	-91.725441	4206.893066	2400.417969
656.294312	-71.844093	4173.869629	2527.608398
656.710327	-76.813721	4146.736816	2417.226807
657.126404	-107.883865	4035.771240	2443.634521
657.542358	104.927841	4207.482910	2503.623779
657.958252	-56.316505	3993.244385	2222.527344
658.374084	-90.482498	3937.697021	2270.641357
658.789917	-87.997116	3951.291504	2335.552979
659.205688	-30.239655	3910.503906	2135.855469
659.621338	4.511921	3870.292969	2328.343018
660.037048	261.417816	4048.762695	2633.066406
660.452637	-19.067181	3682.043457	2123.811035
660.868164	104.927841	3736.539551	2220.120850
661.283691	-68.738266	3475.644043	1928.451172
661.699158	-16.584696	3470.894287	1855.980347
662.114502	24.980637	3526.095703	1983.969360
662.529846	-0.451508	3385.362793	1853.563477
662.945129	-1.071882	3340.191895	1942.937866
663.360413	-78.677422	3256.334473	1882.560181
663.775635	-81.783913	3158.114014	1921.206787
664.190674	-79.298767	3202.771484	1778.608154
664.605835	72.094322	3325.329102	1916.376953
665.020813	-44.518356	3211.105469	1834.226685
665.435791	-3.553712	3355.646973	1940.523438
665.850769	-101.047089	3324.734131	1839.061401
666.265625	-74.328918	3365.751709	1950.179932
666.680420	-9.758609	3415.069824	2024.981323
667.095215	-53.211380	3477.425537	1971.903320
667.509949	-68.117043	3427.543945	2024.981323
667.924622	-89.861183	3383.579590	2111.764648
668.339233	-119.073273	3431.107910	2051.507813
668.753784	-77.435043	3505.918213	2022.569458
669.168335	-102.289986	3567.032715	2075.615723
669.582825	45.442429	3805.212891	2227.339844
669.997192	18.158428	3788.048828	2246.587402
670.411560	-52.590450	3754.303955	2212.901367
670.825867	-10.999558	3806.987793	2222.527344
671.240173	28.081347	3789.824463	2347.568359
671.654358	-36.447231	3795.151367	2299.496826
672.068481	-6.655943	3799.294678	2347.568359
672.482605	-65.632614	3723.510498	2196.053711
672.896667	-77.434906	3662.488281	2133.446777
673.310669	-128.399338	3696.854736	2179.202393
673.724609	82.627640	3879.755371	2395.614502
674.138489	-30.239519	3574.150146	2186.424561
674.552307	-69.980606	3514.227051	2024.981323
674.966064	-48.243893	3549.829590	2044.274170
675.379822	59.699554	3551.609131	2236.964355
675.793579	-78.677422	3330.085449	2022.569458
676.207153	-23.411711	3403.187744	1976.729980
676.620789	4.511786	3283.699951	1969.489868
677.034241	26.841055	3270.612549	2015.333130
677.447754	-13.481941	3100.922363	1790.702271
677.861206	21.879768	3053.833740	1739.894531
678.274597	-30.860207	2934.519043	1696.319702
678.687866	16.918066	2841.948975	1538.768188
679.101135	-26.515123	2792.939697	1623.642334
679.514404	-20.929043	2653.542725	1512.074707
679.927551	-50.727581	2507.340088	1351.719727
680.340698	-75.571236	2504.941650	1524.209229
680.753723	-79.298767	2365.106689	1366.311157
681.166748	-55.074463	2267.151611	1249.499878
681.579712	-102.911575	2241.894531	1220.268799
681.992615	40.482697	2286.390869	1368.742920
682.405457	109.882111	2170.893799	1424.649658
682.818298	22.500036	2079.349854	1230.013916
683.231018	30.561850	1985.897827	1300.627075
683.643738	55.360794	1943.660034	1139.823486
684.056335	-62.527122	1743.038696	961.552612
684.468994	-7.276517	1726.701172	1047.079712
684.881531	-19.687885	1680.697632	998.219482
685.293945	-4.173983	1688.568481	1051.964111
685.706482	-72.465218	1587.398438	844.089844
686.118774	26.841055	1628.608887	858.783447
686.531128	19.398901	1638.908081	924.866516
686.943481	-66.253677	1402.897583	763.218811
687.355713	44.202499	1474.565063	814.692993
687.767883	-125.290482	1292.836914	603.646606
688.179932	28.701548	1345.758545	728.881165
688.592041	-65.632614	1267.883667	763.218811
689.004089	-71.222694	1191.146118	564.308716
689.416016	-12.861301	1217.343140	716.613586
689.827881	-79.298630	1190.536865	596.272400
690.239868	-20.929043	1170.425659	640.504639
690.651611	-26.515261	1099.687988	603.646606
691.063354	-1.692262	1147.260254	682.252441
691.475098	-38.309784	1100.297974	625.763977
691.886719	22.500036	1156.405151	736.240784
692.298340	0.789355	1108.838867	620.849548
692.709900	5.132102	1133.845337	701.889526
693.121460	-27.135908	1068.566040	674.887207
693.532837	-29.618704	1075.279541	586.439209
693.944214	-93.589485	1008.114380	583.980591
694.355652	-67.496094	978.175293	547.091064
694.766846	-124.047096	883.386230	433.833557
695.178101	-60.663799	925.598450	520.025757
695.589294	-11.620178	974.508484	579.063110
696.000366	-101.047089	894.400574	490.487122
696.411438	78.290680	979.397461	532.329590
696.822510	-3.553577	960.450256	576.604248
697.233459	-66.253677	866.249390	559.389771
697.644409	-69.359367	856.455200	453.544769
698.055298	-51.969532	818.488831	515.103516
698.466064	-90.482498	793.370911	465.861145
698.876831	60.319427	981.230591	571.686462
699.287537	39.862614	972.063721	687.162292
699.698181	-39.551472	875.430298	534.790100
700.108826	-28.377226	882.162476	586.439209
700.519348	-103.533173	820.326416	549.551025
700.929810	-43.897385	879.102600	463.398010
701.340271	77.670860	970.841492	620.849548
701.750732	134.029190	1006.281860	549.551025
702.161011	5.132236	879.714478	547.091064
702.571350	-37.068123	907.860229	431.369202
702.981567	108.643646	982.452942	684.707397
703.391724	-68.117043	853.393860	542.170837
703.801880	-87.375687	779.889038	428.904724
704.211914	-94.832352	727.775391	423.975525
704.621948	-74.328781	727.162109	423.975525
705.031921	-79.919838	739.427734	465.861145
705.441895	-47.002022	741.880676	426.440155
705.851746	16.297604	855.230652	564.308716
706.261536	11.955812	793.370911	564.308716
706.671265	-48.864635	724.095093	465.861145
707.081055	-18.446617	740.040955	391.927032
707.490662	29.321609	801.948547	428.904724
707.900330	1.409844	791.532532	500.334717
708.309814	-42.034794	753.530640	394.392914
708.719299	98.734230	867.473450	588.897705
709.128784	85.105881	874.206360	539.710876
709.538147	-47.001884	704.464661	510.180847
709.947510	16.917931	757.822144	485.562622
710.356750	-42.034657	700.783081	377.130005
710.766052	-38.930695	702.010376	382.062805
711.175171	-71.222832	711.826660	347.525604
711.584290	8.854260	762.726563	465.861145
711.993347	-72.465218	665.186096	275.923981
712.402405	82.627914	867.473755	478.175140
712.811401	-27.135908	680.532166	342.590118
713.220276	-32.722580	703.850891	377.130005
713.629150	-30.239384	698.942200	362.329529
714.037964	-89.861183	602.538757	342.590118
714.446777	13.196549	638.168945	421.511047
714.855408	-18.446617	662.116516	295.684357
715.264099	-54.453514	612.983948	340.122192
715.672668	-9.758743	653.520935	391.927032
716.081177	-9.138008	725.321960	433.833557
716.489746	-61.905964	617.284363	315.438477
716.898132	13.816639	669.483215	470.787140
717.306519	3.271002	640.011230	426.440155
717.714844	-76.192543	541.676941	369.730347
718.123108	20.019196	644.310181	520.025757
718.531372	-37.068123	637.554626	345.057922
718.939514	35.522411	681.145874	478.175140
719.347595	-5.415085	606.839844	330.249939
719.755676	26.220833	699.556030	446.153656
720.163696	-37.688881	626.499084	295.684357
720.571716	-67.495827	582.257568	288.274841
720.979614	-29.618837	586.560181	226.495773
721.387451	-78.677559	546.597229	300.623535
721.795227	62.178875	694.646973	394.392914
722.202942	-84.890434	589.632996	317.907349
722.610718	-18.446617	533.066040	293.214630
723.018311	13.196414	582.257568	357.395172
723.425903	-1.071747	584.716187	275.923981
723.833374	-75.571236	500.455933	280.864746
724.240906	-81.162552	517.070618	186.924561
724.648376	-36.447231	501.686676	278.394409
725.055725	-2.312784	614.212585	184.450760
725.463013	15.057201	585.330811	288.274841
725.870300	-4.794666	561.355591	312.969543
726.277466	80.769104	690.351563	423.975525
726.684631	-50.727715	536.141296	280.864746
727.091797	-22.170229	553.361816	152.279007
727.498779	-51.348488	566.888855	332.718231
727.905823	23.740282	561.970642	374.663452
728.312805	101.211800	595.164185	384.529053
728.719666	121.028473	619.741699	483.100220
729.126526	91.920578	632.641357	423.975525
729.533264	-24.032326	529.990051	253.686066
729.940063	15.057201	541.676941	386.995239
730.346680	-9.138008	540.446960	342.590118
730.753357	49.162060	602.538513	404.255463
731.159851	-9.758473	501.686676	317.907349
731.566406	-58.800674	484.452515	349.993225
731.972900	-24.653084	512.148132	330.249939
732.379272	-36.447231	457.976929	337.654510
732.785645	-25.273848	520.762085	273.453491
733.191895	-53.832443	453.049957	280.864746
733.598206	-37.068123	493.070160	179.502289
734.004333	-73.086357	456.129303	280.864746
734.410522	59.699417	614.212830	517.564697
734.816528	-63.769192	455.513763	219.078278
735.222656	-95.453865	437.651062	216.605484
735.628662	-64.390236	461.056030	169.604172
736.034546	-95.453865	477.680786	199.293472
736.440430	-65.011421	472.755310	243.800140
736.846252	-67.495956	404.376556	270.982880
737.252014	-20.929043	510.917297	300.623535
737.657715	-19.067181	477.680786	256.157379
738.063354	5.132236	507.840546	322.844513
738.468933	-12.240669	485.068024	261.099701
738.874512	-25.273712	509.686737	216.605484
739.280029	-38.930557	497.378662	285.805084
739.685486	-53.832443	460.440277	253.686066
740.090881	112.978691	609.297302	372.196808
740.496216	-22.170364	476.449585	224.023270
740.901550	50.401749	537.986633	317.907349
741.306702	46.062450	554.591553	394.392914
741.711914	10.715184	459.208740	300.623535
742.117004	50.401886	563.815002	233.912643
742.522095	-24.653084	430.874451	248.743423
742.927124	-30.860342	488.761627	214.132599
743.332031	-45.760174	502.917664	211.659607
743.737000	-20.929043	448.122864	261.099701
744.141785	-28.377361	443.811066	228.968155
744.546631	-26.515261	469.677032	204.240067
744.951355	-0.451508	482.605896	308.031311
745.356079	8.233849	464.135223	300.623535
745.760620	-110.370247	406.225708	137.424850
746.165283	9.474529	485.683563	263.570709
746.569824	-45.760036	472.139679	317.907349
746.974243	-44.518219	412.388428	278.394409
747.378723	-6.656078	445.659027	270.982880
747.783020	-49.485657	407.458221	233.912643
748.187378	-86.133110	415.470245	233.912643
748.591614	-84.269035	395.130676	216.605484
748.995850	5.132102	494.301300	382.062805
749.399963	-83.647774	419.783691	258.628571
749.804077	-80.541191	348.263916	139.900711
750.208130	-43.897385	408.691010	241.328354
750.612122	-5.414950	440.115204	270.982880
751.016052	-69.359230	432.106537	201.766953
751.419922	-32.722580	463.519257	280.864746
751.823792	-19.067181	512.763367	241.328354
752.227478	-72.465218	499.225159	285.805084
752.631226	61.558887	577.954895	389.461060
753.034851	-39.551472	485.068024	243.800140
753.438477	-29.618704	425.329315	149.803528
753.842102	-16.584696	470.292419	214.132599
754.245544	8.854395	471.524048	238.856445
754.648987	-81.783775	391.431976	204.240067
755.052368	-47.001884	379.717865	211.659607
755.455750	-35.205612	454.281860	221.550690
755.859009	-83.026527	409.923492	204.240067
756.262268	-30.860342	402.527679	246.271851
756.665405	53.501133	475.218109	332.718231
757.068542	20.019196	410.539764	268.512421
757.471680	51.021721	403.760284	231.440445
757.874634	-65.632614	361.834259	246.271851
758.277588	-109.127045	282.221313	53.182060
758.680420	-34.584877	420.399841	191.872437
759.083374	-34.584877	332.222717	107.705482
759.486084	-124.668793	276.663147	142.376602
759.888916	13.196414	365.534393	248.743423
760.291504	-65.011421	301.979706	199.293472
760.694214	-43.276558	336.541534	154.754395
761.096802	-136.483276	307.535645	55.661381
761.499268	-47.001884	316.177155	181.976578
761.901733	-129.021347	274.192657	117.613564
762.304199	-66.253540	301.979706	149.803528
762.706543	-48.243893	282.221313	186.924561
763.108826	-27.756563	303.831543	177.027924
763.511108	-35.826351	327.286011	219.078278
763.913208	-56.316505	332.839722	186.924561
764.315369	-19.067181	359.983826	142.376602
764.717529	-90.482498	264.927643	194.346207
765.119568	62.798317	437.035065	367.263489
765.521545	-24.032326	368.001556	201.766953
765.923462	-2.312784	501.686676	340.122192
766.325317	-76.813721	571.807251	327.781555
766.727112	-115.964912	711.826660	394.392914
767.128845	-18.446617	766.404480	470.787140
767.530518	-89.861183	635.712036	362.329529
767.932251	66.516869	661.502686	483.100220
768.333862	-107.262360	400.061798	186.924561
768.735413	-37.688881	421.015961	268.512421
769.136841	25.600874	518.301025	362.329529
769.538269	62.178741	619.127686	458.471436
769.939636	-20.308460	588.403870	394.392914
770.341003	-85.511841	526.914185	194.346207
770.742249	-40.793053	529.990051	327.781555
771.143433	-45.139328	528.759583	189.398560
771.544617	-88.618416	351.348328	194.346207
771.945740	-21.549902	404.992859	162.179810
772.346802	-69.980469	306.918396	100.273399
772.747803	-65.632477	287.161591	144.852386
773.148682	-23.411711	338.392639	206.713348
773.549622	-35.826485	301.362122	169.604172
773.950439	9.474529	331.605438	214.132599
774.351196	-53.211514	229.707855	48.222832
774.751892	24.980503	301.979706	191.872437
775.152588	-48.864769	244.539673	142.376602
775.553162	64.657822	341.477509	226.495773
775.953735	70.235184	392.048401	305.562073
776.354309	3.891330	284.691223	102.750908
776.754639	-60.663937	238.978119	159.704727
777.155090	-35.205746	187.664780	127.520020
777.555420	-65.632614	169.107361	105.228180
777.955750	-86.133110	241.450012	125.043526
778.355896	-89.861183	233.416077	129.996414
778.756104	-24.032326	237.124069	125.043526
779.156189	-28.998028	269.869263	149.803528
779.556274	-51.969532	247.011353	162.179810
779.956299	-73.707634	242.067902	68.056992
780.356201	-88.618553	186.427902	139.900711
780.756165	-7.897098	258.132477	204.240067
781.156006	18.778736	272.339661	147.327927
781.555786	-86.754395	191.994202	154.754395
781.955505	-90.482498	222.290756	48.222832
782.355225	-43.897385	326.668976	137.424850
782.754761	-66.253677	273.575073	164.654785
783.154358	-65.632614	264.309998	144.852386
783.553894	-107.262360	235.270233	28.382071
783.953369	-78.677559	190.757141	82.928230
784.352783	-55.695412	193.849609	50.702496
784.752075	59.079807	285.926697	167.129654
785.151367	-59.421665	224.763031	100.273399
785.550598	-6.656078	247.629166	152.279007
785.949768	40.482697	319.263123	191.872437
786.348877	-96.075249	144.355103	167.129654
786.747986	-80.541321	214.872482	102.750908
787.147034	-56.316505	246.393509	63.099003
787.545959	-86.754395	211.781342	179.502289
787.944885	34.902416	319.263123	147.327927
788.343750	-28.377226	235.270233	107.705482
788.742493	-80.541321	192.612579	112.659798
789.141235	-84.890434	188.283478	122.566933
789.539917	-83.026390	179.005569	55.661381
789.938538	-56.937469	198.796906	65.578049
790.337158	-79.298767	202.506729	125.043526
790.735718	29.321609	310.004791	211.659607
791.134094	-100.425514	130.118301	58.140739
791.532532	38.002605	309.387299	231.440445
791.930847	-2.312784	310.622009	154.754395
792.329224	-6.655943	264.927643	184.450760
792.727417	-104.154648	158.588852	53.182060
793.125610	-135.239639	145.592834	28.382071
793.523682	-96.696907	141.879303	92.840385
793.921753	-14.722970	238.360199	82.928230
794.319824	-99.804230	151.163116	127.520020
794.717773	3.271002	200.651840	48.222832
795.115723	3.271002	297.657959	228.968155
795.513550	21.259628	303.831543	77.971603
795.911377	-41.413986	230.943878	167.129654
796.309082	132.172226	378.484497	330.249939
796.706787	-88.618416	206.834824	82.928230
797.104370	-32.101738	230.943878	194.346207
797.501953	34.902416	314.942596	201.766953
797.899536	-90.482635	206.835083	82.928230
798.296936	-73.707634	208.690033	92.840385
798.694397	-28.998163	252.572159	73.014435
799.091736	-45.760036	229.707855	75.493073
799.489014	-87.375687	232.798111	107.705482
799.886230	96.256554	386.499908	312.969543
800.283447	-3.553577	257.514496	100.273399
800.680542	67.136665	295.188568	181.976578
801.077637	100.592216	312.473602	246.271851
801.474670	-20.929178	224.144989	129.996414
801.871643	-50.106548	229.707855	100.273399
802.268555	-15.964159	240.214218	110.182693
802.665405	-58.800674	184.572266	8.534811
803.062256	41.722565	345.179382	167.129654
803.458923	-16.584831	268.634033	60.619987
803.855652	-102.911575	148.687592	-110.690346
804.252258	174.872009	455.513489	327.781555
804.648804	-34.584877	214.254044	25.901611
805.045410	-7.276517	276.663147	179.502289
805.441833	95.637184	330.988190	261.099701
805.838257	-57.558575	208.071823	95.318199
806.234619	70.235184	374.784882	169.604172
806.630859	-9.758473	277.280701	201.766953
807.027100	-117.830025	200.033539	92.840385
807.423279	-67.495956	208.071548	129.996414
807.819458	-26.515261	285.926422	248.743423
808.215515	-99.182533	185.809189	172.078857
808.611572	108.024406	438.883270	342.590118
809.007507	21.879768	319.880524	204.240067
809.403381	-28.998028	293.336182	142.376602
809.799194	-63.148155	236.506134	102.750908
810.195068	36.762657	398.829132	278.394409
810.590759	-16.584831	350.731506	216.605484
810.986450	-37.688881	315.559998	102.750908
811.382080	2.650667	368.618195	275.923981
811.777649	-6.656078	368.618195	248.743423
812.173157	86.964294	479.527527	300.623535
812.568665	-64.390236	346.413116	149.803528
812.964050	-58.179554	421.632355	216.605484
813.359375	-67.495956	446.274933	238.856445
813.754639	-49.485657	406.225708	179.502289
814.149841	-32.722443	490.608032	312.969543
814.545105	-27.756699	590.247803	283.334991
814.940186	-34.584877	655.976990	261.099701
815.335266	-28.377361	800.110718	421.511047
815.730347	134.029465	1086.874512	748.504822
816.125244	-79.298897	1043.536621	547.091064
816.520203	130.315216	1634.667480	968.887451
816.914978	-57.558575	2014.245728	1181.275879
817.309753	-64.390236	3027.000488	1981.556274
817.704468	38.002605	4765.032227	3013.165527
818.099182	116.694008	6830.864746	4234.485352
818.493774	-95.453865	8914.587891	5061.394531
818.888367	58.459919	11233.734375	6397.452148
819.282898	66.516998	12664.216797	7616.164063
819.677307	146.409088	13595.779297	8089.944824
820.071716	10.094927	13677.460938	8032.813965
820.466003	-52.590450	13336.188477	7957.365234
820.860291	-22.790966	12150.671875	7365.995605
821.254517	85.725357	10836.968750	6698.031250
821.648743	-58.179554	9159.054688	5558.910645
822.042786	-12.240804	7671.867676	4437.075195
822.436890	-67.495956	6294.509277	3605.464111
822.830872	4.511921	5158.024414	3041.791016
823.224792	-75.571236	4093.628906	2256.209717
823.618774	-54.453514	3323.544434	1824.556641
824.012512	-99.182671	2637.375977	1468.374390
824.406311	-6.035646	2277.974121	1346.855347
824.799988	-77.434906	1829.510376	1039.752930
825.193665	-32.722443	1640.119873	907.739807
825.587280	-0.451373	1363.391479	716.613586
825.980835	27.461136	1299.529907	721.520996
826.374329	-55.074463	1058.799316	596.272400
826.767761	24.980637	1025.217163	596.272400
827.161194	11.335568	905.413269	556.930481
827.554443	-19.687885	831.350525	451.081177
827.947754	-108.505524	735.748352	396.858704
828.340942	-15.343629	722.868469	414.116272
828.734131	32.422226	644.310181	325.313080
829.127136	-55.074463	604.996399	241.328354
829.520264	-97.318306	497.994110	337.654510
829.913208	24.360531	579.184143	389.461060
830.306152	-33.343292	535.526245	362.329529
830.699097	-55.074463	481.374512	270.982880
831.091797	-56.937469	458.592682	273.453491
831.484619	-68.738266	408.690735	102.750908
831.877319	125.981422	533.680786	372.196808
832.270020	37.382496	439.499237	228.968155
832.662537	-38.930557	369.851501	152.279007
833.055054	-84.269035	243.921814	112.659798
833.447510	134.029190	482.605896	359.862396
833.839966	-46.381023	287.161591	107.705482
834.232361	-58.179554	260.603638	139.900711
834.624634	-102.911575	263.074371	137.424850
835.016907	-7.276517	371.701874	226.495773
835.409058	-116.586517	194.467972	85.406456
835.801208	-37.068123	203.125275	134.948761
836.193298	-22.170498	228.471832	82.928230
836.585327	13.196280	313.091064	216.605484
836.977295	-76.192413	185.190994	147.327927
837.369202	-76.192543	133.213577	142.376602
837.761047	-94.832489	175.294067	144.852386
838.152832	-45.139328	181.479614	157.229538
838.544617	17.538250	292.718536	144.852386
838.936218	-4.174118	203.125275	95.318199
839.327942	15.057201	227.853531	125.043526
839.719421	-55.695412	167.251205	75.493073
840.111023	13.816639	230.944138	95.318199
840.502380	2.030191	171.582077	186.924561
840.893860	-71.222694	92.962349	13.497216
841.285217	24.360395	213.017700	105.228180
841.676453	91.300896	279.751343	209.186523
842.067749	-5.415085	224.144989	48.222832
842.458862	-37.688881	169.725998	77.971603
842.849976	26.841055	242.685791	23.420914
843.241028	-25.273712	144.974243	102.750908
843.632019	11.335568	181.479614	65.578049
844.022949	-63.148155	134.451538	43.263332
844.413879	-127.155884	79.952232	25.901611
844.804749	-51.348488	102.253418	55.661381
845.195496	-85.511703	66.939552	-31.180006
845.586182	-14.722970	127.641914	87.884445
845.976807	-90.482498	77.473778	43.263332
846.367432	-60.042797	54.543709	110.182693
846.757996	-15.343763	125.165428	92.840385
847.148499	-15.964294	185.190994	164.654785
847.538879	93.159386	225.381363	179.502289
847.929260	5.132236	172.819244	129.996414
848.319641	143.314224	313.090790	196.819885
848.709839	-0.451373	136.308701	92.840385
849.100098	-38.309647	87.386696	-13.801512
849.490234	-32.101738	71.277336	-26.214121
849.880310	32.422092	142.498459	50.702496
850.270325	-9.138144	96.059532	90.362465
850.660339	12.576184	159.826553	117.613564
851.050171	28.701548	206.216843	181.976578
851.440125	-19.067045	154.257324	132.472565
851.829895	-68.738136	75.615074	-56.015347
852.219604	-60.663799	95.440163	-38.629490
852.609314	-60.042664	99.156555	33.342949
852.998901	-37.688881	97.917603	8.534811
853.388550	-9.138008	97.917603	45.743065
853.778015	-3.553577	130.737320	122.566933
854.167480	22.499901	102.872719	55.661381
854.556885	-29.618704	85.528297	75.493073
854.946228	2.030191	92.342949	20.940111
855.335571	-39.551472	95.440163	28.382071
855.724731	-76.192543	90.484436	23.420914
856.113953	-135.861450	18.581322	38.303280
856.503052	-76.813721	16.720781	55.661381
856.892151	-86.132973	34.705055	40.783356
857.281067	-9.758609	66.939552	80.449905
857.670105	-103.533173	46.485146	33.342949
858.058960	-10.999694	103.492279	97.795784
858.447754	41.722565	141.260406	132.472565
858.836609	140.219452	240.832123	293.214630
859.225281	-6.035511	140.641495	80.449905
859.613892	-1.071747	118.973892	92.840385
860.002502	-63.148155	11.758377	13.497216
860.391052	-89.861183	36.565170	33.342949
860.779541	-47.622749	57.023109	43.263332
861.167969	74.572731	180.861115	275.923981
861.556335	21.879633	182.716843	77.971603
861.944702	-104.154648	35.325188	-75.891151
862.332947	-65.011284	65.080254	-18.766214
862.721069	33.662399	149.306427	60.619987
863.109253	-24.032461	25.403349	-23.731337
863.497314	2.650532	84.289337	70.535698
863.885376	42.342762	135.689743	82.928230
864.273315	-9.758609	117.116196	-3.873228
864.661255	-63.148155	26.023716	-118.150024
865.049072	-72.465218	50.824417	38.303280
865.436890	-79.298767	6.795825	-43.596291
865.824707	52.881325	183.335327	117.613564
866.212280	18.158428	162.301636	65.578049
866.599915	11.955947	104.730850	20.940111
866.987488	0.168994	76.854485	60.619987
867.375061	-25.894617	58.882526	112.659798
867.762451	-0.451373	125.784760	70.535698
868.149841	-75.571236	29.744425	18.459339
868.537170	18.778736	132.594589	134.948761
868.924438	-47.001884	78.713150	80.449905
869.311707	-11.620178	62.601189	45.743065
869.698853	-29.618704	30.364477	11.015998
870.085938	52.881325	89.245575	45.743065
870.472961	-20.308460	34.705189	15.978330
870.859985	-48.864769	67.559212	90.362465
871.246887	52.261505	134.451538	68.056992
871.633789	-20.308460	86.147774	33.342949
872.020569	15.677541	77.473778	45.743065
872.407349	181.676620	295.188568	377.130005
872.794067	51.641548	110.923843	120.090370
873.180725	57.220261	174.675247	132.472565
873.567322	39.242661	122.688835	58.140739
873.953796	27.461271	47.105022	-11.319250
874.340332	13.816773	108.446663	43.263332
874.726624	35.522411	95.440163	90.362465
875.113037	-53.211514	41.525364	-65.952469
875.499329	-39.551338	-34.782333	-58.499371
875.885559	-17.205376	40.285355	77.971603
876.271729	-65.011421	24.163137	45.743065
876.657898	-23.411711	60.741886	43.263332
877.044006	-54.453514	40.905296	3.571854
877.429932	32.422092	83.669853	25.901611
877.815918	-67.495827	60.122150	45.743065
878.201782	87.584015	76.234650	33.342949
878.587585	162.498444	200.033539	226.495773
878.973389	-23.411844	71.277336	28.382071
879.359070	74.572731	162.301636	164.654785
879.744751	-22.170364	35.325054	-28.697012
880.130310	-83.647774	-3.130662	-36.146179
880.515930	-51.969532	12.378751	-65.952469
880.901367	-103.533043	-3.130662	-36.146179
881.286804	24.980772	112.162254	77.971603
881.672180	42.962681	84.289337	38.303280
882.057434	-60.663799	-29.816277	-88.317093
882.442749	-45.760174	71.277611	35.823235
882.827942	22.499901	79.952232	63.099003
883.213013	5.752545	45.864994	-26.214121
883.598145	23.740282	88.006416	125.043526
883.983154	33.042252	53.303837	6.053384
884.368042	-122.181931	-15.541019	-48.563652
884.753052	-71.844093	-0.028346	-38.629490
885.137817	-60.042664	-21.747181	-103.231636
885.522644	5.752545	99.775887	95.318199
885.907349	-73.086357	-17.402773	-8.837093
886.292053	-94.832489	12.998983	11.015998
886.676636	-35.826485	70.657715	65.578049
887.061157	-48.243893	-3.130527	65.578049
887.445740	-53.211647	24.783245	-41.112770
887.830078	-19.067181	34.085049	-58.499371
888.214539	82.627914	162.920319	97.795784
888.598816	70.235184	142.498459	186.924561
888.983093	-14.102452	66.939415	63.099003
889.367249	-38.309647	34.085186	-48.563652
889.751465	-100.425652	44.005173	-33.662971
890.135498	-50.727715	40.905430	-21.248791
890.519531	80.769104	148.068771	167.129654
890.903503	-20.308460	41.525364	-6.355041
891.287415	81.388618	139.403656	162.179810
891.671326	58.459919	141.260666	35.823235
892.055054	-30.239519	47.105022	23.420914
892.438843	0.168994	72.516838	-95.773880
892.822510	-63.769192	0.592017	-85.831665
893.206116	-64.390236	24.163137	-53.531300
893.589661	-66.253677	32.224724	-70.921593
893.973206	-83.647774	-22.367914	-31.180006
894.356628	-30.860342	21.682365	11.015998
894.739990	-42.034927	20.441940	8.534811
895.123352	47.302208	115.877617	90.362465
895.506592	-78.677559	17.961149	18.459339
895.889832	-77.434906	-9.335515	-38.629490
896.272949	-12.861437	44.005306	105.228180
896.656067	34.282410	45.245106	48.222832
897.039063	13.816639	107.827423	132.472565
897.422058	-63.769192	-0.648850	-46.079918
897.804993	-55.695549	14.859912	28.382071
898.187866	6.993278	53.923775	35.823235
898.570618	-34.584877	60.122150	-38.629490
898.953369	-22.791101	21.682501	13.497216
899.336121	-30.860207	89.245308	18.459339
899.718689	-50.727581	67.559212	-58.499371
900.101257	-34.584877	45.245239	-36.146179
900.483704	34.282276	118.973892	60.619987
900.866211	3.891465	24.783381	20.940111
901.248596	-53.832581	-34.161606	-43.596291
901.630920	6.372847	44.625210	-46.079918
902.013184	-66.253540	-37.265587	-56.015347
902.395386	-22.170364	70.038078	28.382071
902.777588	-74.328918	25.403349	-70.921593
903.159668	-4.794666	63.840870	38.303280
903.541687	-61.905830	1.832723	-68.436913
903.923645	-14.722970	77.473778	3.571854
904.305603	-50.727715	22.302500	-38.629490
904.687500	-90.482635	17.961149	-56.015347
905.069275	-130.264709	-31.678484	-48.563652
905.451050	12.576184	17.340834	13.497216
905.832642	-73.707634	30.364613	-8.837093
906.214294	49.162060	53.303970	15.978330
906.595825	-14.102452	41.525364	43.263332
906.977417	-25.273848	31.604828	-53.531300
907.358826	10.094927	40.285355	-18.766214
907.740234	-23.411711	18.581322	-80.861267
908.121582	13.816639	77.473778	58.140739
908.502869	100.592491	100.395210	77.971603
908.884033	119.789970	122.069740	65.578049
909.265198	-65.011421	-9.335515	-48.563652
909.646301	17.538115	48.964745	25.901611
910.027344	-33.964149	40.285488	70.535698
910.408325	81.388618	125.165428	70.535698
910.789246	-52.590450	4.934643	-18.766214
911.170105	16.297739	77.473778	28.382071
911.550903	-18.446482	52.684158	82.928230
911.931641	-50.106548	36.565304	20.940111
912.312317	-74.328781	-24.230017	-11.319250
912.692932	-53.211514	36.565170	68.056992
913.073547	20.639347	79.332695	50.702496
913.453979	-68.117043	-9.956117	8.534811
913.834473	-32.722580	50.824417	-11.319250
914.214783	15.057201	50.824551	1.090354
914.595154	59.699554	115.258453	117.613564
914.975464	-37.068123	56.403202	45.743065
915.355652	-33.343430	70.657715	73.014435
915.735840	75.812164	204.980057	63.099003
916.115845	89.442619	182.716843	174.553436
916.495972	3.271137	52.064205	-16.283743
916.875854	-3.553712	35.325188	-93.288139
917.255859	39.242661	97.917877	45.743065
917.635620	-19.067316	1.212373	-1.391385
918.015503	67.136665	159.207840	68.056992
918.395203	121.028473	187.046341	107.705482
918.774902	-50.727581	17.340969	-11.319250
919.154480	-128.399338	-60.240337	-93.288139
919.534058	200.848526	261.839020	253.686066
919.913574	6.993278	-9.335649	38.303280
920.292969	-66.253677	21.062223	35.823235
920.672363	-34.584877	36.565170	53.182060
921.051636	-24.032597	4.314326	-80.861267
921.430969	-3.553712	16.720510	53.182060
921.810181	-24.653084	48.344757	45.743065
922.189331	-106.019356	-47.820385	-51.047356
922.568420	-81.162552	-51.546135	3.571854
922.947388	70.854813	131.356323	90.362465
923.326416	-69.980606	26.643805	-108.204094
923.705261	-40.172256	18.581322	28.382071
924.084106	185.387741	194.467972	285.805084
924.462891	-9.138008	19.821785	77.971603
924.841675	21.259493	48.344757	75.493073
925.220337	-19.067316	19.201626	58.140739
925.598938	-20.308325	18.581322	65.578049
925.977478	197.138336	244.539673	194.346207
926.355957	-46.381023	3.694003	-21.248791
926.734436	-90.482498	-47.820518	-90.802628
927.112732	112.978691	188.901642	194.346207
927.491089	-12.861437	-18.023460	40.783356
927.869324	-37.688881	4.314326	55.661381
928.247559	39.242661	81.191277	87.884445
928.625671	-78.677422	-26.091909	11.015998
929.003723	-15.343629	59.502274	53.182060
929.381775	-61.905964	-22.368050	38.303280
929.759705	-89.861183	-75.147804	-26.214121
930.137634	-84.269035	-23.609264	-65.952469
930.515381	-33.343292	33.465038	77.971603
930.893250	210.123398	222.908829	228.968155
931.270935	16.917931	77.473778	75.493073
931.648560	-99.182533	-31.678617	-23.731337
932.026123	-52.590450	-30.437096	-108.204094
932.403687	-33.964149	-21.126589	-46.079918
932.781250	-8.517550	49.584599	30.862564
933.158630	218.160095	263.692322	315.438477
933.536011	-22.170498	-9.956117	-48.563652
933.913208	-92.968124	-29.816277	-28.697012
934.290527	-93.589485	-16.782227	-130.585052
934.667664	151.359970	217.963470	189.398560
935.044800	-10.379215	-0.648850	23.420914
935.421814	-24.032461	-14.920359	-33.662971
935.798889	15.677541	60.741886	53.182060
936.175842	-40.172256	3.073673	45.743065
936.552673	5.752410	27.884098	30.862564
936.929504	-6.035646	-37.886486	-3.873228
937.306274	32.422092	32.844883	33.342949
937.683044	-50.106682	-18.644154	-58.499371
938.059570	-48.243755	-4.992022	-103.231636
938.436218	155.072922	179.005310	231.440445
938.812744	-87.996979	-42.853222	-23.731337
939.189148	-81.162552	-3.751064	-43.596291
939.565613	-35.205612	-32.920029	18.459339
939.941956	-91.104103	-40.369736	-70.921593
940.318237	50.401886	81.191551	110.182693
940.694458	-9.758609	31.604694	65.578049
941.070557	-84.269035	-91.923088	-88.317093
941.446655	62.178741	124.546356	142.376602
941.822693	3.271002	6.795825	75.493073
942.198669	-37.068123	1.832858	-13.801512
942.574646	-17.205240	14.239563	-48.563652
942.950562	-17.825926	12.378751	-65.952469
943.326294	-27.756699	6.175528	-31.180006
943.702026	21.879904	18.581322	40.783356
944.077698	-52.590450	-46.578659	-80.861267
944.453369	-82.405014	3.694003	-90.802628
944.828918	-17.205376	73.756042	-58.499371
945.204468	-57.558575	-23.609264	-13.801512
945.579834	-48.864635	-0.028481	1.090354
945.955261	-25.273848	12.378615	-53.531300
946.330627	-81.783775	-21.126589	-51.047356
946.705811	16.297604	-3.751064	-38.629490
947.081055	-94.210983	6.795825	-73.406387
947.456177	-2.933177	55.163639	95.318199
947.831238	-71.222969	-49.683296	-100.745567
948.206238	29.941801	50.204712	43.263332
948.581238	-69.359367	-58.377090	-130.585052
948.956116	17.538250	-34.782467	-60.983631
949.330933	-61.284950	-0.028346	35.823235
949.705811	-35.826351	-12.438320	-73.406387
950.080505	-53.832443	-11.197070	-36.146179
950.455139	-86.132973	-74.526512	-95.773880
950.829773	-64.390373	-47.199516	-28.697012
951.204346	404.572876	463.519257	406.720612
951.578735	186.624908	218.581604	177.027924
951.953186	21.879768	9.897486	25.901611
952.327515	-28.998028	-37.265587	-31.180006
952.701843	-30.860207	-17.402773	-70.921593
953.076172	-94.832352	-60.861347	-85.831665
953.450195	-79.298767	-78.253830	-46.079918
953.824341	-31.481035	16.720646	11.015998
954.198486	-103.533043	-58.998344	-70.921593
954.572449	121.028198	151.781921	139.900711
954.946350	-17.826059	24.783245	3.571854
955.320251	59.079807	109.685127	112.659798
955.694092	-50.106682	-29.195601	-36.146179
956.067871	-5.415085	1.212373	-11.319250
956.441589	64.657822	91.103859	68.056992
956.815125	-28.377361	-39.128162	-18.766214
957.188721	-4.174118	40.285217	-28.697012
957.562256	-49.485657	-60.861481	-28.697012
957.935730	-35.826351	11.758512	35.823235
958.309021	-83.647636	-42.853222	-85.831665
958.682373	-55.695412	-31.057785	-78.376152
959.055664	-76.192413	-63.345707	-83.346344
959.428955	-43.897385	16.100319	-80.861267
959.802063	-75.571236	1.832723	-36.146179
960.175110	-66.253677	-10.576590	-78.376152
960.548157	-30.239519	-12.438186	23.420914
960.921143	-58.179554	9.897486	-23.731337
961.294128	-40.793186	9.277221	-16.283743
961.666809	-64.390236	-25.471273	-80.861267
962.039612	-9.138008	-0.028346	15.978330
962.412415	-59.421665	-65.830177	-68.436913
962.785095	-78.677422	-47.820518	-80.861267
963.157715	-97.939575	-23.609264	-21.248791
963.530151	-64.390373	-29.816277	-60.983631
963.902649	-41.413986	-6.233006	3.571854
964.275146	-25.894482	-14.920494	8.534811
964.647522	-79.298630	-83.224144	8.534811
965.019714	-87.375687	-33.540882	-110.690346
965.392029	31.802061	2.453201	-98.259743
965.764160	6.372847	19.201490	-21.248791
966.136292	-17.825926	2.453201	-31.180006
966.508423	-60.663799	-43.474045	-88.317093
966.880371	-73.707634	-39.748943	-78.376152
967.252319	64.657684	127.022606	48.222832
967.624207	-22.170364	-29.816277	-36.146179
967.996094	-57.558575	-10.576590	-8.837093
968.367737	26.841055	65.700203	55.661381
968.739441	-35.205746	23.543020	-78.376152
969.111084	14.436855	35.945316	13.497216
969.482666	-73.707771	-56.514172	-63.467995
969.854248	-90.482498	-56.514034	-33.662971
970.225586	-47.622887	-14.920494	-43.596291
970.596985	-11.620178	-39.748943	-68.436913
970.968323	-49.485794	-11.817557	1.090354
971.339661	24.980637	48.344891	68.056992
971.710754	11.955812	44.625343	102.750908
972.081909	87.584015	124.546356	90.362465
972.453064	-43.897518	6.175528	38.303280
972.824097	218.778214	214.872208	233.912643
973.194946	-79.920113	-31.057785	-56.015347
973.565918	38.002605	55.163639	-38.629490
973.936768	21.259493	55.163502	125.043526
974.307556	-91.725304	-92.544434	-73.406387
974.678284	-62.526989	10.517879	-103.231636
975.048828	-10.999694	60.742157	-1.391385
975.419495	37.382633	3.073673	18.459339
975.790039	-24.653217	1.832858	-78.376152
976.160522	34.282276	17.961149	38.303280
976.530884	-9.758743	-14.299840	-41.112770
976.901245	-22.170498	-16.782227	-13.801512
977.271606	45.442295	-23.609264	-43.596291
977.641846	60.939026	168.488480	68.056992
978.012024	5.752410	32.844883	-13.801512
978.382019	-30.239519	-39.128162	6.053384
978.752136	150.741165	141.879303	174.553436
979.122131	116.074844	107.208176	92.840385
979.492065	-64.390236	-29.195465	-85.831665
979.861877	-28.998163	-29.816412	-46.079918
980.231689	-102.911713	-42.232407	-38.629490
980.601440	-66.874748	-11.197070	20.940111
980.971191	-34.584877	11.138131	20.940111
981.340820	-71.222969	-54.651039	-70.921593
981.710266	-1.692262	-33.540882	-11.319250
982.079773	40.482559	88.626137	50.702496
982.449280	-48.864769	-7.474017	-60.983631
982.818604	67.136665	130.737320	30.862564
983.187866	-42.655739	-34.782333	-80.861267
983.557129	-60.663799	-41.611465	-53.531300
983.926331	-33.964012	21.682365	53.182060
984.295471	-103.533173	-89.437508	-33.662971
984.664612	-102.290115	-61.482628	-68.436913
985.033569	-38.930424	-29.195601	-60.983631
985.402527	-6.655943	-11.817692	-23.731337
985.771362	36.142536	100.395210	132.472565
986.140259	28.081211	104.111298	87.884445
986.508911	-5.415085	35.945183	11.015998
986.877625	101.831116	130.118301	58.140739
987.246277	-33.964149	-26.712688	-98.259743
987.614929	-70.601578	-10.576455	-18.766214
987.983459	25.600874	1.212373	55.661381
988.351807	-16.584831	32.224857	35.823235
988.720215	-96.075249	-63.966881	-68.436913
989.088623	-55.074463	-1.269361	-65.952469
989.456909	33.042114	66.939552	77.971603
989.825012	45.442295	51.444515	65.578049
990.193115	-41.414120	-31.057785	-133.072418
990.561279	59.699688	48.344891	92.840385
990.929321	-17.205376	4.934778	-38.629490
991.297302	-1.071747	-0.648715	43.263332
991.665100	-63.769192	-28.574930	-93.288139
992.033020	-26.515123	16.720510	25.901611
992.400818	-95.453865	-74.526512	-95.773880
992.768494	42.342491	20.442076	18.459339
993.136047	-17.205376	-19.264719	-38.629490
993.503723	-89.239731	-95.030151	-90.802628
993.871277	23.740282	63.840870	15.978330
994.238770	-19.687885	30.984655	-51.047356
994.606140	-60.042797	-51.546135	-162.928558
994.973450	-68.117043	-91.923088	-115.663452
995.340759	-57.558575	-40.369736	-56.015347
995.708008	-74.950211	-29.816141	-56.015347
996.075195	-84.269035	-27.954132	-113.176849
996.442200	-74.328781	-57.135136	-43.596291
996.809265	-50.106682	-40.369736	-95.773880
997.176270	-58.800541	-59.619339	-13.801512
997.543152	-112.235031	-52.787971	-56.015347
997.910095	-61.905830	-30.436960	-43.596291
998.276733	-31.481035	-38.507252	48.222832
998.643494	-84.890434	-39.128162	-98.259743
999.010193	-50.727715	-65.830177	-38.629490
999.376831	12.576049	14.859912	28.382071
999.743286	-102.290115	-61.482357	-51.047356
1000.109802	36.762524	63.220898	30.862564
1000.476257	-14.102452	-26.712688	-38.629490
1000.842651	-92.968124	-40.990665	-75.891151
1001.208923	-24.653217	-8.094464	-33.662971
1001.575134	-89.239861	-44.095009	-63.467995
1001.941284	-53.211647	-59.619339	40.783356
1002.307434	-122.803596	-55.893078	-51.047356
1002.673523	-57.558575	-69.557076	-60.983631
1003.039429	-91.725304	-77.011322	-100.745567
1003.405334	20.639347	78.093597	20.940111
1003.771179	-78.056229	-72.662804	-78.376152
1004.137024	-2.312784	4.934643	-18.766214
1004.502808	-120.316826	-88.816193	-128.097809
1004.868408	-57.558575	-4.371607	-16.283743
1005.234009	-83.026527	-86.952034	-80.861267
1005.599609	-19.687885	-3.130527	13.497216
1005.965149	-83.026527	-18.023460	-73.406387
1006.330444	-102.911575	-71.420547	-90.802628
1006.695862	-47.622887	-16.782091	-28.697012
1007.061218	-20.929178	-54.030098	-65.952469
1007.426453	23.120028	22.302635	58.140739
1007.791626	-25.273712	-30.437096	-1.391385
1008.156677	-16.584696	-24.230017	-8.837093
1008.521729	27.461271	19.201490	120.090370
1008.886780	-26.515261	-39.128029	-28.697012
1009.251709	-28.377361	-14.299975	-85.831665
1009.616577	-135.239639	-27.954132	20.940111
1009.981384	-55.695549	-41.611599	-60.983631
1010.346130	41.722565	65.700066	70.535698
1010.710754	78.290680	52.684158	82.928230
1011.075439	95.637184	131.975327	295.684357
1011.439941	-79.920113	-85.709328	-21.248791
1011.804443	-6.035511	-2.510267	-48.563652
1012.168884	-73.707634	-45.957668	-3.873228
1012.533325	-86.133110	-100.001900	-78.376152
1012.897522	-61.284813	1.832723	45.743065
1013.261780	-101.047089	-99.380341	-125.610809
1013.626038	-60.663799	-37.265724	6.053384
1013.990112	-33.343430	-14.920494	6.053384
1014.354187	-23.411711	-5.612579	43.263332
1014.718140	-68.738266	-14.299975	18.459339
1015.082153	23.120163	53.923775	-31.180006
1015.446045	-4.173983	9.897486	30.862564
1015.809937	-22.170364	30.364477	18.459339
1016.173523	-35.205612	-2.510132	-48.563652
1016.537170	-40.172256	-44.715843	3.571854
1016.900879	-40.793053	-12.438186	-23.731337
1017.264404	-8.517550	-65.830177	-28.697012
1017.627991	-12.861167	-5.612579	-43.596291
1017.991333	-87.997116	-82.602905	-33.662971
1018.354675	31.182028	18.581322	-3.873228
1018.718018	-27.135908	-31.678484	-73.406387
1019.081299	-0.451373	11.138131	73.014435
1019.444397	-23.411711	-0.648985	-33.662971
1019.807495	-42.034794	-32.920166	-78.376152
1020.170593	-94.832352	-66.451241	-46.079918
1020.533691	-14.722970	17.961149	6.053384
1020.896606	-24.653084	-16.161552	-70.921593
1021.259460	-68.117180	-37.886349	-128.097809
1021.622253	-38.930557	-3.751199	-60.983631
1021.985046	-45.760174	-40.990665	11.015998
1022.347778	-25.273712	-36.024082	-51.047356
1022.710327	-81.783913	-35.403069	-93.288139
1023.072876	-106.019226	-85.709465	-70.921593
1023.435364	-74.950081	-45.336819	-80.861267
1023.797852	-39.551472	-21.126589	-56.015347
1024.160278	-133.373962	-93.787277	-103.231636
1024.522461	-40.172256	-31.057785	3.571854
1024.884766	-89.239861	-104.352333	-118.150024
1025.246948	-87.375687	-42.232407	-113.176849
1025.609131	-98.561256	-26.712553	-41.112770
1025.971069	25.600874	39.665272	50.702496
1026.333130	-93.589485	-78.253967	-41.112770
1026.694946	49.781906	61.981472	13.497216
1027.056885	98.734230	107.827423	159.704727
1027.418823	-72.465218	-76.390274	-51.047356
1027.780396	1.409979	4.314326	33.342949
1028.142090	-40.172256	-12.438186	-68.436913
1028.503784	-43.897518	-31.057920	-51.047356
1028.865479	-129.021347	-40.990799	-113.176849
1029.226807	-30.239384	-24.850641	-26.214121
1029.588135	-56.316505	-38.507252	-70.921593
1029.949707	-43.897385	-18.023460	-51.047356
1030.310913	-25.894482	-24.850641	-36.146179
1030.672241	60.319290	50.824417	-33.662971
1031.033325	-40.793053	-0.028346	1.090354
1031.394531	38.002605	75.615074	33.342949
1031.755493	11.335568	-41.611599	-11.319250
1032.116577	-63.769192	-42.232407	-75.891151
1032.477417	2.030191	18.581322	8.534811
1032.838257	-98.561119	-51.546135	-113.176849
1033.199097	-81.783775	-51.546135	-36.146179
1033.559937	-55.074463	-46.578793	3.571854
1033.920654	-94.832489	-62.724674	-26.214121
1034.281128	-36.447231	-53.409164	-80.861267
1034.641724	49.162060	86.147774	157.229538
1035.002197	64.657822	56.403202	184.450760
1035.362671	52.881458	58.262772	75.493073
1035.722900	-95.453865	-33.540882	-11.319250
1036.083252	0.168994	22.302635	75.493073
1036.443481	-97.939705	-94.408783	-11.319250
1036.803711	-38.309647	-57.135136	-60.983631
1037.163940	169.304428	125.165428	97.795784
1037.523804	25.600739	-0.028346	100.273399
1037.883789	-99.804230	-100.001900	-120.636848
1038.243774	-66.874748	-60.861347	-18.766214
1038.603638	-8.517550	22.302635	-18.766214
1038.963257	0.789355	24.163137	25.901611
1039.323120	-84.269165	-24.850641	-31.180006
1039.682861	-132.130417	-92.544434	-145.510544
>>>>>End Processed Spectral Data<<<<<
