Jaz Data File
++++++++++++++++++++++++++++++++++++
Date: Thu Dec 04 18:26:44 2014
User: jaz
Dark Spectrum Present: Yes
Reference Spectrum Present: Yes
Processed Spectrum Present: No
Spectrometers: JAZA2310
Integration Time (usec): 20500 (JAZA2310)
Spectra Averaged: 3 (JAZA2310)
Boxcar Smoothing: 0 (JAZA2310)
Correct for Electrical Dark: Yes (JAZA2310)
Strobe/Lamp Enabled: No (JAZA2310)
Correct for Detector Non-linearity: Yes (JAZA2310)
Correct for Stray Light: No (JAZA2310)
Number of Pixels in Processed Spectrum: 2048
>>>>>Begin Processed Spectral Data<<<<<
W	D	R	S
188.301102	0.000000	0.000000	0.000000
188.764923	0.000000	0.000000	0.000000
189.228699	-61.623425	-48.299953	-94.686478
189.692459	-101.385796	1.353829	-63.209232
190.156158	-61.623425	-35.882538	-15.197948
190.619812	-21.888016	-53.267578	-25.128143
191.083435	22.782036	-35.882538	-25.955654
191.547043	55.022987	13.760635	-27.610851
192.010590	10.377120	-13.537971	-15.197948
192.474091	37.664696	-6.091668	-30.093801
192.937561	40.144665	1.353829	12.101561
193.401001	-26.853537	26.164974	60.878075
193.864410	40.144665	58.403957	33.601154
194.327759	77.333313	58.403957	3.830189
194.791077	15.339371	21.203497	26.159849
195.254349	17.820408	78.234741	-45.821503
195.717575	-19.405548	-28.433403	23.679026
196.180786	-26.853537	-35.882538	41.041664
196.643951	2.932896	-43.332615	22.025221
197.107071	-11.958504	43.526615	28.640297
197.570145	62.460686	-23.467751	31.120779
198.033203	10.377120	48.486099	41.041393
198.496216	-9.476320	-1.127899	20.371506
198.959167	20.301340	-25.950525	-8.578705
199.422089	-29.336452	-83.082489	11.274300
199.884979	15.339371	8.798252	-58.240894
200.347855	-51.687042	3.835317	-51.616653
200.810654	-36.785702	23.684288	-15.197948
201.273422	-26.853537	-60.719875	-7.751436
201.736160	5.414319	-45.816231	3.003082
202.198853	-4.512402	-28.433403	-12.715628
202.661514	-31.819342	-53.267578	1.348700
203.124130	7.895772	-38.365837	-31.749115
203.586700	-11.958504	46.006340	-67.350014
204.049240	47.584221	6.316836	-10.233412
204.511734	-54.171013	-11.055720	-87.229958
204.974197	-66.592186	-1.127899	-35.060017
205.436615	-21.888016	-93.024239	-24.300507
205.899002	-71.561501	-122.859734	7.138903
206.361343	-2.030531	-107.940132	-20.990211
206.823654	-36.785702	-20.985216	-56.584698
207.285919	-69.076790	-78.112320	-32.576721
207.748123	5.414319	18.722736	-73.975906
208.210327	-4.512402	-45.816231	-48.305088
208.672485	-71.561501	-30.916388	-28.438400
209.134583	-34.302467	-6.091668	-29.265959
209.596649	-41.752350	-53.267578	-53.272713
210.058670	-76.531113	-1.127899	-44.165520
210.520676	-6.994241	-6.091668	-1.960340
210.982635	0.451235	-117.886017	-12.715628
211.444534	-79.016136	-53.267578	-56.584698
211.906403	-59.139137	8.798252	-6.096798
212.368240	-34.302467	-53.267578	-55.756752
212.830048	22.782036	-43.332615	-19.335337
213.291779	-24.370724	1.353829	-14.370452
213.753494	-29.336452	-8.573575	-25.128143
214.215179	5.414319	-35.882538	-40.026382
214.676819	-91.442619	-88.053215	-39.198669
215.138412	-64.107819	41.046658	-54.928684
215.599960	-16.923050	-40.849106	-9.405985
216.061493	7.895772	-30.916388	-64.037552
216.522949	-14.440658	-73.142578	-31.749115
216.984406	-86.471733	-16.020191	-13.543101
217.445801	-71.561501	-48.299953	-59.896870
217.907166	-51.687042	-38.365837	-35.060017
218.368484	-16.923050	-11.055720	-30.921520
218.829773	-6.994241	1.353829	-46.649307
219.291031	-39.268906	-45.816231	-29.266230
219.752228	15.339371	28.645426	-31.749115
220.213379	-4.512402	-3.609731	-87.229958
220.674500	-14.440658	-30.916388	-11.888301
221.135574	-56.654953	-20.985216	-41.682110
221.596634	7.895772	13.760635	-10.233412
222.057648	52.543499	-93.024239	-6.924044
222.518600	62.460686	-50.783649	-36.715469
222.979553	-46.719551	-95.509972	-50.788780
223.440430	32.704178	-20.985216	-1.133029
223.901276	-44.235897	-55.751617	-36.715469
224.362076	-46.719551	-88.053215	-46.649307
224.822845	-59.139137	18.722736	-30.921520
225.283569	-59.139137	-3.609731	-10.233412
225.744278	-64.107819	3.835317	0.521288
226.204910	-59.139137	38.566589	-29.266230
226.665512	-39.268906	-33.399342	19.544630
227.126114	-36.785702	23.684288	35.254772
227.586639	-69.076790	-20.985216	22.852198
228.047119	55.022987	-135.295654	-31.749115
228.507568	25.262760	-73.142578	-0.305864
228.967972	-69.076790	31.125904	-71.491089
229.428345	-16.923050	-45.816231	-48.304955
229.888687	45.104565	-73.142578	-23.473015
230.348984	2.932896	36.086555	-6.924179
230.809219	5.414319	-30.916388	-30.093801
231.269440	5.414319	-38.365837	-2.787527
231.729614	-64.107819	-48.299953	-73.147713
232.189758	-14.440658	-25.950525	-11.060986
232.649841	-83.986382	-30.916388	-18.507780
233.109894	-24.370724	-18.502651	-4.442072
233.569901	-44.235897	-3.609731	-5.269564
234.029892	-19.405548	50.965752	-26.783180
234.489822	-59.139137	-16.020191	-48.304955
234.949707	-76.531113	-53.267578	-47.477123
235.409561	-156.103912	-40.849106	-33.404472
235.869385	-44.235897	6.316836	-26.783316
236.329163	-26.853537	-127.833748	-59.068878
236.788895	-11.958504	-1.127899	-32.576855
237.248581	-54.171013	-83.082489	-25.955654
237.708237	-36.785702	1.353829	-70.662933
238.167847	2.932896	-40.849106	-44.993439
238.627441	-44.235897	-78.112320	-28.438400
239.086960	42.624668	-28.433403	-33.404472
239.546463	-49.203175	-43.332615	-31.749115
240.005920	-11.958504	-43.332615	-57.412926
240.465332	-9.476320	-18.502651	-22.645538
240.924698	-6.994241	-60.719875	-13.542966
241.384033	-44.235897	-30.916388	-11.060716
241.843338	-39.268906	-88.053215	-26.783316
242.302597	-86.471733	-50.783649	-12.715628
242.761810	-59.139137	-38.365837	-8.578705
243.220993	-16.923050	21.203497	-9.405985
243.680115	-49.203175	-30.916388	-83.087761
244.139221	-6.994241	-50.783649	-27.610851
244.598282	27.743382	1.353829	-71.491089
245.057297	-9.476320	-93.024239	-29.266230
245.516266	-69.076790	1.353829	-20.162767
245.975189	-106.358101	-13.537971	-35.060017
246.434082	2.932896	-50.783649	-37.543144
246.892944	-46.719551	-1.127899	-71.491226
247.351761	-31.819342	-11.055720	-61.553162
247.810516	-11.958504	-8.573575	-30.921520
248.269272	-2.030531	31.125904	-41.682110
248.727951	-39.268906	-43.332615	-64.037552
249.186600	-36.785702	-53.267578	11.274300
249.645218	-24.370724	1.353829	-49.132927
250.103790	-54.171013	-3.609731	-27.610851
250.562317	-19.405548	-43.332615	-24.300507
251.020813	-79.016136	-60.719875	-20.162767
251.479279	37.664696	-58.235626	-28.438400
251.937668	-79.016136	-53.267578	-38.370834
252.396057	27.743382	-28.433403	-32.576721
252.854385	-36.785702	-55.751617	-2.787662
253.312683	-34.302467	21.203497	-14.370452
253.770920	-6.994241	-78.112320	-73.147583
254.229126	-9.476320	-35.882538	-35.887669
254.687302	-69.076790	-88.053215	-19.335337
255.145432	40.144665	-30.916388	-8.578705
255.603500	-39.268906	-75.627327	-8.578705
256.061584	-59.139137	23.684288	-34.232372
256.519592	-81.501144	11.279428	-13.543101
256.977570	-6.994241	-11.055720	-38.370968
257.435455	-34.302467	-50.783649	8.792988
257.893372	20.301340	-45.816231	-49.132927
258.351196	-4.512402	-11.055720	-12.715628
258.808990	-19.405548	-75.627327	-8.578705
259.266754	-29.336452	-78.112320	-35.060017
259.724487	-64.107819	-40.849106	-13.543101
260.182190	-64.107819	13.760635	-36.715469
260.639832	15.339371	-28.433403	35.254501
261.097443	-14.440658	-28.433403	-20.162767
261.554993	-56.654953	13.760635	-17.680372
262.012512	-36.785702	-73.142578	-21.817801
262.469971	-31.819342	-85.567802	0.521288
262.927429	-31.819342	28.645426	1.348700
263.384827	40.144665	-3.609731	-11.060986
263.842194	5.414319	-78.112320	-9.405985
264.299530	-59.139137	-18.502651	-31.749115
264.756805	-41.752350	-3.609731	-53.272846
265.214050	55.022987	-60.719875	-28.438400
265.671234	-29.336452	36.086555	-1.960340
266.128387	-56.654953	-55.751617	-21.817801
266.585510	-11.958504	-13.537971	-35.060017
267.042572	22.782036	-48.299953	3.830189
267.499573	-24.370724	-35.882538	-31.749115
267.956604	-21.888016	11.279428	-29.266230
268.413574	-31.819342	-11.055720	-8.578705
268.870483	20.301340	-70.657799	-54.928684
269.327362	22.782036	-28.433403	-42.509857
269.784180	-69.076790	28.645426	-19.335337
270.240936	-11.958504	-16.020191	-42.509857
270.697693	-26.853537	-18.502651	0.521558
271.154419	-96.414070	-65.688690	-6.096798
271.611053	-71.561501	-23.467751	-22.645538
272.067688	-81.501144	-1.127899	5.484501
272.524292	-16.923050	-35.882538	-41.682243
272.980835	7.895772	-30.916388	-58.240894
273.437347	40.144665	-16.020191	-28.438400
273.893799	-39.268906	-38.365837	-82.259300
274.350250	-29.336452	1.353829	-55.756618
274.806610	40.144665	-105.453857	-45.821232
275.262939	-111.330688	1.353829	-17.680372
275.719238	-21.888016	-16.020191	-40.854374
276.175507	-16.923050	-28.433403	-23.473015
276.631714	-61.623425	31.125904	-5.269294
277.087891	-51.687042	-20.985216	-54.100761
277.544067	-59.139137	38.566589	-41.682110
278.000122	-56.654953	-63.204231	-51.616653
278.456177	-101.385796	31.125904	-24.300507
278.912201	-6.994241	8.798252	-41.682110
279.368164	-9.476320	-53.267578	-30.093801
279.824097	15.339371	-18.502651	-38.370968
280.279968	-69.076790	-45.816231	-54.100761
280.735840	-69.076790	60.883202	-26.783316
281.191620	37.664696	28.645426	-32.576721
281.647400	37.664696	11.279428	-11.888301
282.103149	-49.203175	-35.882538	-45.821232
282.558838	-59.139137	-50.783649	2.175829
283.014465	-44.235897	-55.751617	-35.887669
283.470062	5.414319	-75.627327	-64.865616
283.925629	37.664696	-16.020191	-23.473015
284.381134	-34.302467	-70.657799	-2.787527
284.836639	-39.268906	-60.719875	-3.614861
285.292053	27.743382	-68.173126	-66.521919
285.747467	-29.336452	-25.950525	-30.093801
286.202820	-66.592186	-58.235626	-1.133029
286.658142	-54.171013	1.353829	-20.990345
287.113434	25.262760	-13.537971	-27.610851
287.568634	79.811768	-73.142578	-15.197948
288.023804	-6.994241	-43.332615	-52.444813
288.478973	-49.203175	-45.816231	-12.715628
288.934113	-136.200363	-25.950525	-7.751436
289.389130	-81.501144	-20.985216	12.101561
289.844208	-16.923050	1.353829	-1.133029
290.299164	10.377120	-20.985216	-41.682110
290.754089	-9.476320	-60.719875	-72.319397
291.208984	-44.235897	-45.816231	-14.370452
291.663879	52.543499	31.125904	-43.337749
292.118683	-19.405548	-120.372818	19.544497
292.573456	-54.171013	-93.024239	-40.854103
293.028198	99.635338	-33.399342	-37.543144
293.482849	-81.501144	23.684288	-48.305088
293.937561	30.223766	-63.204231	-6.096798
294.392151	22.782036	6.316836	-48.304955
294.846741	-71.561501	16.241737	-4.442072
295.301239	-61.623425	-16.020191	11.274300
295.755737	-49.203175	-25.950525	-21.817801
296.210175	-11.958504	-35.882538	0.521558
296.664581	-11.958504	13.760635	-12.715628
297.118958	42.624668	6.316836	-52.444813
297.573242	-59.139137	-73.142578	-35.060017
298.027557	-6.994241	-1.127899	-16.852707
298.481812	-24.370724	-60.719875	-18.507780
298.935974	-16.923050	-43.332615	23.679296
299.390137	-9.476320	-50.783649	-16.025322
299.844238	-34.302467	-45.816231	-50.788780
300.298340	0.451235	-88.053215	-51.616653
300.752350	-71.561501	-45.816231	-6.924044
301.206360	-36.785702	-3.609731	-10.233276
301.660278	-76.531113	38.566589	-42.509991
302.114197	-39.268906	-60.719875	-34.232372
302.568054	-36.785702	-45.816231	-15.197948
303.021881	-21.888016	-45.816231	-40.854374
303.475677	-36.785702	36.086555	-37.543144
303.929413	-64.107819	-60.719875	-7.751436
304.383118	42.624668	-45.816231	-36.715469
304.836761	-6.994241	-8.573575	18.717609
305.290375	-98.899811	-28.433403	24.506113
305.743958	10.377120	-13.537971	-49.960781
306.197510	7.895772	-75.627327	-3.614861
306.650970	-64.107819	-85.567802	-29.266230
307.104431	-16.923050	-25.950525	-6.924179
307.557800	-51.687042	-58.235626	-35.060017
308.011169	-16.923050	-23.467751	-25.955654
308.464508	119.452515	-53.267578	-44.165657
308.917755	-16.923050	-23.467751	-19.335337
309.371063	-9.476320	53.445301	-43.337749
309.824219	15.339371	-23.467751	-23.473015
310.277374	-36.785702	-48.299953	-40.854374
310.730499	-81.501144	-35.882538	-69.006653
311.183563	-61.623425	-68.173126	-38.370968
311.636597	7.895772	-68.173126	-3.614726
312.089569	-66.592186	-60.719875	-20.990211
312.542511	-41.752350	-85.567802	-16.852976
312.995422	7.895772	-6.091668	-37.543144
313.448273	-6.994241	-1.127899	-47.477123
313.901093	-49.203175	28.645426	-35.060017
314.353882	-93.928284	-1.127899	10.447297
314.806580	-16.923050	-93.024239	-30.921385
315.259308	-19.405548	-25.950525	-65.693832
315.711975	35.184490	-50.783649	-1.133164
316.164581	59.981510	-20.985216	-25.955654
316.617126	-59.139137	16.241737	-77.289207
317.069672	2.932896	-8.573575	-12.715628
317.522156	-31.819342	-93.024239	-13.543101
317.974579	-9.476320	-95.509972	-42.509857
318.427002	52.543499	-18.502651	-84.744446
318.879333	-69.076790	-23.467751	-7.751436
319.331665	-41.752350	-70.657799	-40.854374
319.783936	-16.923050	-80.597420	-14.370452
320.236176	27.743382	-13.537971	-53.272713
320.688354	-88.957191	-78.112320	-79.774132
321.140503	-36.785702	-1.127899	-49.133064
321.592651	-19.405548	-28.433403	3.003082
322.044647	-56.654953	-73.142578	-69.006386
322.496704	-9.476320	31.125904	-38.370968
322.948639	-6.994241	-83.082489	-87.229958
323.400604	-26.853537	-38.365837	15.409542
323.852509	22.782036	-25.950525	-21.817801
324.304352	17.820408	-20.985216	-6.096798
324.756165	-11.958504	-60.719875	-35.060017
325.207916	-51.687042	-78.112320	-31.749115
325.659668	-46.719551	-13.537971	-43.337749
326.111328	22.782036	33.606281	-9.405985
326.562988	-61.623425	-55.751617	-48.305088
327.014557	-19.405548	-63.204231	-11.060716
327.466156	-26.853537	16.241737	6.311843
327.917664	-11.958504	-58.235626	-3.614861
328.369110	-9.476320	-23.467751	-26.783316
328.820557	-6.994241	36.086555	-37.543144
329.271942	-81.501144	-13.537971	-39.198669
329.723297	-56.654953	16.241737	20.371506
330.174561	50.063911	11.279428	19.544497
330.625854	-14.440658	112.922783	6.311573
331.077026	-39.268906	3.835317	11.274300
331.528229	-46.719551	63.362206	42.694805
331.979370	-9.476320	6.316836	-5.269294
332.430450	-34.302467	-38.365837	-18.507915
332.881500	-9.476320	-3.609731	-33.404472
333.332489	-59.139137	18.722736	-17.680372
333.783478	-44.235897	83.191345	-45.821503
334.234406	-76.531113	-11.055720	-48.304955
334.685303	-49.203175	-78.112320	-1.960340
335.136078	-81.501144	-1.127899	11.274300
335.586914	0.451235	-28.433403	-32.576721
336.037659	-26.853537	-83.082489	-18.507780
336.488342	32.704178	-93.024239	-12.715628
336.939026	-71.561501	-30.916388	3.830189
337.389648	-24.370724	-11.055720	3.003082
337.840240	-44.235897	-38.365837	-14.370452
338.290771	-31.819342	-65.688690	-44.993439
338.741272	-2.030531	-18.502651	-1.133029
339.191681	-44.235897	-8.573575	-11.060986
339.642120	35.184490	-70.657799	-59.068878
340.092468	-9.476320	-1.127899	1.348700
340.542816	-74.046181	26.164974	-30.921520
340.993103	2.932896	-73.142578	-16.852707
341.443329	-46.719551	-65.688690	-41.682110
341.893555	0.451235	-68.173126	-40.854374
342.343689	35.184490	16.241737	3.003082
342.793793	-59.139137	-38.365837	-33.404472
343.243866	-6.994241	-43.332615	-43.337749
343.693878	37.664696	-13.537971	0.521558
344.143890	10.377120	-13.537971	-4.442072
344.593842	-2.030531	-13.537971	-6.096798
345.043732	-44.235897	31.125904	-12.715628
345.493591	-2.030531	31.125904	17.063532
345.943359	-49.203175	21.203497	26.986631
346.393158	-46.719551	6.316836	7.138903
346.842896	-51.687042	-18.502651	-38.370968
347.292542	-88.957191	95.581261	4.657283
347.742218	7.895772	1.353829	-8.578705
348.191803	-81.501144	21.203497	12.928539
348.641357	15.339371	-20.985216	-23.473015
349.090881	-21.888016	-53.267578	-29.266230
349.540314	-26.853537	21.203497	7.138903
349.989777	-88.957191	48.486099	17.063532
350.439148	-126.251175	-6.091668	-6.924179
350.888489	-81.501144	38.566589	-22.645538
351.337799	5.414319	55.924614	-35.887669
351.787048	-19.405548	8.798252	-13.542966
352.236267	-11.958504	-11.055720	12.928539
352.685425	-56.654953	23.684288	17.063532
353.134552	47.584221	135.211655	-44.993439
353.583649	-59.139137	18.722736	1.348700
354.032684	-29.336452	21.203497	34.427834
354.481659	-16.923050	-40.849106	0.521558
354.930634	35.184490	-3.609731	-12.715628
355.379517	-31.819342	-13.537971	-49.960915
355.828430	-69.076790	11.279428	0.521288
356.277222	-81.501144	13.760635	-16.025322
356.726013	-49.203175	-25.950525	3.830323
357.174774	7.895772	6.316836	-34.232105
357.623444	-39.268906	41.046658	-11.060986
358.072113	-11.958504	-68.173126	3.830189
358.520721	-74.046181	21.203497	-3.614726
358.969299	-34.302467	3.835317	-29.266230
359.417786	-64.107819	28.645426	7.965951
359.866302	-41.752350	21.203497	35.254501
360.314697	37.664696	48.486099	-5.269294
360.763123	-81.501144	-70.657799	-21.818071
361.211456	-49.203175	-38.365837	12.101291
361.659760	30.223766	70.798866	-34.232372
362.108032	35.184490	43.526615	26.986631
362.556244	-6.994241	26.164974	-17.680372
363.004456	-4.512402	70.798866	7.966086
363.452576	-49.203175	-13.537971	-1.960340
363.900696	-2.030531	-13.537971	-19.335337
364.348663	-79.016136	55.924614	-10.233412
364.796722	-41.752350	38.566589	-30.093801
365.244690	-6.994241	65.841232	32.774330
365.692596	-46.719551	-1.127899	12.101561
366.140472	30.223766	31.125904	22.025356
366.588287	2.932896	-83.082489	33.601154
367.036102	0.451235	6.316836	-24.300507
367.483826	40.144665	16.241737	3.830189
367.931549	-24.370724	110.445686	28.640297
368.379181	-6.994241	55.924614	25.332920
368.826843	-6.994241	11.279428	10.447163
369.274384	-34.302467	-1.127899	-14.370452
369.721924	-4.512402	23.684288	44.348034
370.169403	-31.819342	36.086555	36.908207
370.616821	-69.076790	-23.467751	39.388073
371.064270	-16.923050	105.491196	9.620149
371.511566	-6.994241	-28.433403	-10.233412
371.958923	-64.107819	26.164974	31.947628
372.406158	7.895772	8.798252	52.613491
372.853424	-59.139137	38.566589	36.908073
373.300568	-91.442619	1.353829	24.505844
373.747711	-39.268906	18.722736	12.101561
374.194794	-36.785702	13.760635	29.467045
374.641846	7.895772	28.645426	16.236475
375.088898	-11.958504	55.924614	24.506113
375.535828	-46.719551	-23.467751	14.582598
375.982758	-54.171013	33.606281	42.694805
376.429596	-88.957191	93.103455	2.175964
376.876465	-16.923050	28.645426	-10.233412
377.323242	-21.888016	90.625542	34.427834
377.769989	-14.440658	41.046658	22.852198
378.216675	-34.302467	-25.950525	17.890711
378.663330	-64.107819	103.013931	-31.749115
379.109985	-26.853537	75.756218	42.694805
379.556519	-6.994241	78.234741	23.679026
380.003052	-29.336452	41.046658	46.001217
380.449524	32.704178	28.645426	71.620041
380.895996	-69.076790	43.526615	31.947628
381.342377	-66.592186	58.403957	23.679026
381.788727	2.932896	6.316836	14.582598
382.235046	-64.107819	33.606281	-2.787527
382.681274	15.339371	83.191345	4.657418
383.127533	-71.561501	60.883202	58.398701
383.573669	-41.752350	48.486099	45.174698
384.019836	-24.370724	18.722736	29.467316
384.465912	-4.512402	53.445301	46.001217
384.911957	-26.853537	38.566589	28.640297
385.357971	-26.853537	46.006340	74.098602
385.803925	-79.016136	142.639450	75.751228
386.249847	62.460686	95.581261	8.793123
386.695679	-24.370724	88.147537	80.707901
387.141541	-66.592186	3.835317	54.266579
387.587311	-88.957191	75.756218	36.908207
388.033051	15.339371	70.798866	30.294054
388.478729	-153.615555	107.968491	74.924850
388.924408	-46.719551	41.046658	58.398701
389.369995	-64.107819	95.581261	92.272331
389.815552	-123.764259	117.876526	78.229485
390.261078	69.897461	105.491196	24.506113
390.706543	-54.171013	115.399635	60.878075
391.152008	0.451235	135.211655	58.398701
391.597351	-16.923050	3.835317	44.348167
392.042725	-2.030531	155.017181	21.198370
392.487976	-39.268906	130.259186	14.582598
392.933289	-64.107819	78.234741	69.967438
393.378479	-31.819342	120.353317	74.098602
393.823639	-91.442619	6.316836	38.561462
394.268768	55.022987	18.722736	90.620422
394.713837	-133.712875	88.147537	41.868240
395.158905	-21.888016	88.147537	87.316345
395.603851	-11.958504	120.353317	78.229614
396.048798	20.301340	125.306450	109.614799
396.493683	-91.442619	142.639450	73.272469
396.938568	-79.016136	120.353317	99.705551
397.383392	-81.501144	50.965752	61.704376
397.828156	-98.899811	122.829872	49.307583
398.272888	35.184490	130.259186	55.919491
398.717560	-54.171013	63.362206	82.360214
399.162201	17.820408	83.191345	32.774330
399.606781	12.858231	98.058830	77.403412
400.051361	-59.139137	73.277596	112.091927
400.495819	-56.654953	174.816162	78.229485
400.940308	-64.107819	90.625542	54.266579
401.384705	-98.899811	122.829872	131.904892
401.829102	-24.370724	117.876526	98.879501
402.273438	-21.888016	164.917404	62.530666
402.717682	-66.592186	110.445686	99.705551
403.161926	5.414319	95.581261	84.838333
403.606110	-39.268906	155.017181	75.750961
404.050293	-36.785702	145.115234	150.061218
404.494385	-108.844276	110.445686	123.650337
404.938446	20.301340	70.798866	103.834534
405.382477	25.262760	130.259186	145.935394
405.826447	-41.752350	127.782944	106.311897
406.270386	-16.923050	85.669556	75.750961
406.714233	25.262760	147.590759	104.660248
407.158081	-4.512402	197.082504	112.091927
407.601868	-56.654953	187.187363	123.650337
408.045624	20.301340	206.975922	143.459518
408.489319	32.704178	187.187363	83.186218
408.933014	-64.107819	127.782944	135.206528
409.376617	-24.370724	107.968491	149.235992
409.820190	-59.139137	105.491196	153.361877
410.263702	-49.203175	137.687729	116.220070
410.707184	-4.512402	132.735474	136.031952
411.150635	7.895772	182.239120	107.137703
411.594025	-36.785702	214.395142	130.254196
412.037384	-21.888016	122.829872	135.206528
412.480682	-41.752350	137.687729	123.650337
412.923981	-79.016136	192.135071	128.603073
413.367126	0.451235	172.341721	138.507858
413.810333	47.584221	65.841232	136.857086
414.253479	10.377120	167.392273	133.555939
414.696533	30.223766	216.867874	131.904892
415.139587	-16.923050	169.867050	106.311897
415.582581	10.377120	229.230637	162.437332
416.025543	-44.235897	231.702911	131.079559
416.468414	-51.687042	184.713287	173.161377
416.911285	-19.405548	197.082504	145.110245
417.354065	-24.370724	293.476837	133.555664
417.796875	-26.853537	216.867874	168.212280
418.239594	-51.687042	174.816162	197.901703
418.682281	121.929245	214.395142	160.787323
419.124908	-44.235897	214.395142	166.562180
419.567505	-133.712875	216.867874	161.612396
420.010071	-4.512402	194.608841	186.357391
420.452545	20.301340	164.917404	159.962509
420.895020	-64.107819	219.340668	197.077271
421.337372	-64.107819	246.534241	176.460785
421.779785	40.144665	172.341721	187.182251
422.222107	-2.030531	234.174957	172.336609
422.664368	-39.268906	251.477203	200.375381
423.106628	-34.302467	318.169342	136.857224
423.548798	-106.358101	229.230637	167.387024
423.990967	25.262760	192.135071	205.322021
424.433044	-44.235897	298.416199	165.737305
424.875092	-81.501144	224.285782	166.562180
425.317078	-69.076790	345.319885	162.437332
425.759064	-66.592186	226.758255	214.390167
426.200989	55.022987	197.082504	193.779114
426.642853	17.820408	273.715912	169.036835
427.084686	-39.268906	251.477203	249.824615
427.526459	89.724304	303.355011	237.465851
427.968201	52.543499	276.186279	179.759750
428.409912	-56.654953	286.067200	232.521637
428.851563	-24.370724	206.975922	261.357056
429.293121	32.704178	286.067200	245.705338
429.734711	64.939621	273.715912	189.656082
430.176239	2.932896	325.575165	194.603729
430.617706	-79.016136	184.713287	208.619553
431.059113	-39.268906	303.355011	253.119644
431.500488	5.414319	300.885590	214.389893
431.941833	32.704178	394.654694	236.641800
432.383087	-59.139137	291.007141	235.817871
432.824341	20.301340	379.858307	250.648361
433.265533	-2.030531	320.638062	259.709595
433.706726	0.451235	350.255188	245.705200
434.147827	10.377120	236.647034	229.225525
434.588867	0.451235	313.231659	256.414764
435.029877	-16.923050	244.062561	227.577316
435.470825	77.333313	335.448303	247.352921
435.911804	-19.405548	409.447784	279.475067
436.352661	2.932896	369.992096	319.810150
436.793518	-31.819342	352.722534	300.880493
437.234283	-29.336452	360.124329	328.038513
437.675049	7.895772	360.124329	298.411102
438.115723	12.858231	434.095184	295.941315
438.556396	22.782036	446.415253	291.002045
438.997040	-61.623425	431.630829	368.342499
439.437561	-54.171013	431.630829	393.827606
439.878113	-29.336452	473.511353	344.492157
440.318573	2.932896	426.701965	361.764069
440.759033	5.414319	411.912842	371.631592
441.199341	-26.853537	369.992096	328.861359
441.639709	-86.471733	387.256927	337.088684
442.079956	-88.957191	335.448303	292.648560
442.520264	-24.370724	328.043610	308.288483
442.960510	67.418594	350.255188	259.709595
443.400604	30.223766	273.715912	271.240204
443.840759	-56.654953	268.774597	286.062103
444.280762	-2.030531	295.946564	233.345886
444.720825	-96.414070	234.174957	167.387161
445.160767	-56.654953	256.419891	200.375381
445.600739	32.704178	266.303802	197.077271
446.040558	-59.139137	291.007141	224.280670
446.480438	-39.268906	382.324646	256.414764
446.920258	-66.592186	431.630829	269.593140
447.359955	-34.302467	399.586151	310.757660
447.799713	-39.268906	345.319885	374.098114
448.239319	25.262760	466.122650	353.539856
448.678955	-108.844276	571.947571	439.839661
449.118500	47.584221	748.765259	521.922607
449.558014	-14.440658	834.552246	630.933472
449.997498	-29.336452	1022.913330	775.733215
450.436951	-9.476320	1101.046997	756.934998
450.876343	12.858231	974.036621	743.854980
451.315674	10.377120	844.349792	678.416016
451.754974	-93.928284	628.481628	607.179504
452.194183	22.782036	638.308899	519.461548
452.633392	-19.405548	478.436615	465.296478
453.072510	-49.203175	461.196320	356.007355
453.511688	-54.171013	485.824036	295.118164
453.950684	-59.139137	394.654694	333.797821
454.389740	2.932896	421.772583	406.155670
454.828735	-16.923050	448.879028	410.264343
455.267639	17.820408	446.415253	396.293549
455.706543	-74.046181	350.255188	333.797821
456.145325	-56.654953	399.586151	244.881393
456.584137	-41.752350	249.005844	219.335541
457.022858	-29.336452	209.449097	203.673309
457.461578	-31.819342	263.833038	159.962372
457.900208	-6.994241	219.340668	206.146484
458.338867	2.932896	283.597076	139.333099
458.777405	-86.471733	164.917404	170.686890
459.215912	-59.139137	211.922165	140.983795
459.654388	-6.994241	110.445686	169.037109
460.092773	-4.512402	179.764984	189.656082
460.531189	12.858231	206.975922	201.199768
460.969513	-14.440658	192.135071	168.212006
461.407806	-111.330688	249.005844	161.612396
461.846008	-66.592186	261.362030	220.159698
462.284241	-56.654953	320.638062	225.104889
462.722351	-16.923050	434.095184	258.885834
463.160461	-21.888016	419.307770	297.587830
463.598541	-59.139137	379.858307	304.996124
464.036530	7.895772	510.442322	359.296814
464.474518	5.414319	520.287048	342.024353
464.912384	-31.819342	626.024536	464.475525
465.350281	-41.752350	738.954285	598.986511
465.788086	50.063911	1142.521484	787.990417
466.225891	62.460686	1597.234863	1224.582886
466.663605	-11.958504	2203.529785	1616.623413
467.101318	-24.370724	2824.755615	1919.848267
467.539001	-14.440658	2709.941650	2021.212402
467.976563	-11.958504	2335.808105	1988.242676
468.414124	-16.923050	1933.536499	1685.270752
468.851593	55.022987	1403.036011	1326.025513
469.289063	-93.928284	1061.990845	1051.404297
469.726440	30.223766	964.257080	846.793945
470.163849	15.339371	787.995483	722.594238
470.601135	15.339371	743.860107	612.094910
471.038422	15.339371	709.512695	523.563171
471.475677	5.414319	544.892334	470.222534
471.912811	-16.923050	567.029175	447.231476
472.350006	5.414319	510.442322	392.183868
472.787048	-19.405548	406.982483	356.829712
473.224121	7.895772	374.925446	322.278870
473.661072	-51.687042	374.925446	279.475067
474.098053	-4.512402	392.188965	315.695496
474.534943	-36.785702	564.569824	414.372864
474.971802	-9.476320	859.043335	584.236572
475.408630	-44.235897	1157.153931	776.550598
475.845367	-49.203175	981.370056	757.752380
476.282104	-41.752350	692.332397	631.752380
476.718750	-24.370724	431.630829	517.000427
477.155426	20.301340	305.824371	357.652161
477.591949	-16.923050	268.774597	287.708740
478.028503	-51.687042	219.340668	273.710815
478.464966	-9.476320	300.885590	178.935059
478.901428	-86.471733	187.187363	156.662094
479.337860	-2.030531	194.608841	154.186920
479.774170	20.301340	211.922165	176.460785
480.210510	-29.336452	135.211655	161.612396
480.646698	-36.785702	221.813324	164.912430
481.082947	-31.819342	184.713287	132.730347
481.519073	-11.958504	145.115234	173.986145
481.955200	-14.440658	194.608841	153.361740
482.391266	-61.623425	167.392273	91.446320
482.827301	-26.853537	286.067200	193.779114
483.263306	12.858231	169.867050	138.507858
483.699188	-11.958504	184.713287	137.682480
484.135101	-6.994241	241.590775	138.507858
484.570923	-21.888016	216.867874	169.861923
485.006744	-39.268906	234.174957	216.038589
485.442413	20.301340	204.502777	177.285507
485.878174	69.897461	179.764984	173.986145
486.313782	10.377120	177.290634	173.161377
486.749390	-34.302467	234.174957	198.726410
487.184998	0.451235	266.303802	236.641800
487.620453	0.451235	355.189941	145.109970
488.055939	-11.958504	229.230637	202.848694
488.491333	-46.719551	211.922165	225.104889
488.926727	-11.958504	283.597076	235.817871
489.362030	-39.268906	320.638062	277.004700
489.797302	5.414319	374.925446	249.000580
490.232513	-36.785702	367.525391	301.703552
490.667755	27.743382	379.858307	294.294891
491.102905	37.664696	505.519318	402.868408
491.537964	-83.986382	589.158752	448.052795
491.973022	-44.235897	682.513062	437.375641
492.407990	-41.752350	584.241638	479.252319
492.842957	-4.512402	512.903503	449.695099
493.277832	-36.785702	549.812256	471.043518
493.712738	-11.958504	439.023468	437.375641
494.147491	20.301340	562.110413	435.732880
494.582275	-6.994241	601.449585	498.129059
495.017029	-6.994241	807.602234	576.860229
495.451660	45.104565	927.572571	656.316650
495.886292	-64.107819	1257.064575	977.290710
496.320831	40.144665	1911.803345	1351.162231
496.755402	-36.785702	2982.398682	2095.951172
497.189850	-39.268906	5054.621582	3560.637451
497.624298	17.820408	8946.504883	5943.133301
498.058655	47.584221	13231.289063	8880.645508
498.493042	-74.046181	15768.714844	10903.007813
498.927368	-34.302467	14888.697266	11305.010742
499.361572	-11.958504	11540.983398	10094.391602
499.795807	5.414319	7824.897461	7956.840820
500.229919	7.895772	5342.190918	5873.409668
500.664063	20.301340	3717.130371	4068.769043
501.098083	-9.476320	2448.689941	2808.015625
501.532104	-51.687042	1793.377686	1935.946167
501.966064	17.820408	1349.545654	1386.825684
502.399994	12.858231	1047.338989	1046.520020
502.833893	-19.405548	917.786621	739.766785
503.267700	-41.752350	677.602844	678.416016
503.701477	-31.819342	635.852173	562.925110
504.135193	-81.501144	461.196320	489.922516
504.568909	-56.654953	488.286194	463.654572
505.002502	12.858231	512.903503	439.018372
505.436127	-36.785702	535.051331	415.194611
505.869629	-56.654953	402.051605	392.183746
506.303162	-56.654953	446.415253	360.119110
506.736603	-61.623425	387.256927	349.427521
507.169983	-86.471733	365.058472	334.620575
507.603363	-93.928284	399.586151	315.695496
508.036621	17.820408	392.188965	372.453735
508.469940	-11.958504	379.858307	360.119385
508.903107	-49.203175	434.095184	320.632965
509.336304	12.858231	426.701965	346.137421
509.769379	-54.171013	441.487549	351.894928
510.202484	-46.719551	387.256927	341.201813
510.635529	0.451235	345.319885	337.911285
511.068481	5.414319	431.630829	330.507019
511.501434	5.414319	409.447784	346.959900
511.934265	-54.171013	406.982483	362.586365
512.367126	69.897461	416.842987	294.294891
512.799927	-71.561501	382.324646	358.474487
513.232605	30.223766	384.790894	346.959900
513.665344	-21.888016	466.122650	324.747467
514.097961	-56.654953	571.947571	495.667389
514.530579	5.414319	1434.626343	991.956787
514.963135	20.301340	3075.430420	1989.046875
515.395691	-69.076790	4434.971680	2859.008057
515.828064	-4.512402	4333.721191	3246.944580
516.260498	5.414319	3180.283203	2739.450928
516.692871	-31.819342	1887.648560	2009.955688
517.125183	-4.512402	1227.836426	1522.035034
517.557373	-39.268906	925.126221	968.327026
517.989624	17.820408	633.395386	679.234619
518.421753	-81.501144	557.191589	503.052856
518.853943	-61.623425	463.659515	475.147919
519.286072	15.339371	406.982483	386.429749
519.718018	30.223766	394.654694	345.314789
520.150024	-14.440658	342.852112	307.465515
520.581909	-4.512402	461.196320	332.975159
521.013855	-24.370724	446.415253	327.215820
521.445679	-79.016136	345.319885	352.717468
521.877502	-39.268906	291.007141	304.173096
522.309204	10.377120	335.448303	273.710815
522.740906	-2.030531	475.974121	295.118164
523.172546	2.932896	394.654694	315.695496
523.604187	-101.385796	466.122650	350.250092
524.035767	-29.336452	352.722534	299.234192
524.467224	-83.986382	342.852112	319.810150
524.898682	-36.785702	416.842987	364.231018
525.330078	-74.046181	402.051605	326.392944
525.761475	-71.561501	429.166351	319.810150
526.192749	22.782036	436.559296	292.648560
526.624023	-71.561501	365.058472	319.810150
527.055237	-83.986382	429.166351	319.810150
527.486389	-39.268906	458.733093	323.101624
527.917542	-26.853537	411.912842	332.152374
528.348572	15.339371	402.051605	303.349915
528.779663	-24.370724	439.023468	363.408630
529.210571	-31.819342	473.511353	316.518372
529.641541	-26.853537	347.787598	330.507019
530.072388	37.664696	369.992096	364.230865
530.503235	-6.994241	493.210480	336.266083
530.934082	-71.561501	369.992096	325.570190
531.364746	-24.370724	367.525391	379.853210
531.795532	-44.235897	471.048492	306.642242
532.226135	-19.405548	397.120483	278.651703
532.656738	7.895772	443.951508	371.631592
533.087280	-41.752350	421.772583	343.669678
533.517822	-19.405548	434.095184	360.941681
533.948242	-41.752350	429.166351	383.963684
534.378662	-6.994241	345.319885	322.278717
534.809082	-2.030531	365.058472	370.809143
535.239319	-26.853537	448.879028	365.875732
535.669617	-41.752350	362.591461	396.293549
536.099792	-11.958504	367.525391	397.115356
536.529968	17.820408	480.899200	371.631317
536.960083	-59.139137	547.352234	377.386902
537.390137	-96.414070	495.672363	358.474487
537.820190	-79.016136	478.436615	402.868408
538.250183	-51.687042	426.701965	369.164795
538.680115	-96.414070	552.272095	405.333710
539.109985	7.895772	443.951508	362.586365
539.539795	-44.235897	498.134277	406.977539
539.969543	-116.303711	554.731873	400.402985
540.399292	-64.107819	515.364807	445.588837
540.828979	-21.888016	500.596100	398.759003
541.258606	-39.268906	542.432190	463.654572
541.688171	-103.871895	532.590759	484.177399
542.117737	-14.440658	581.782959	484.998138
542.547302	-56.654953	628.481628	463.654572
542.976685	-116.303711	557.191589	442.303680
543.406128	-2.030531	633.395386	434.090240
543.835388	-56.654953	603.907532	487.460419
544.264771	-24.370724	711.966431	546.527222
544.693970	-41.752350	665.325928	543.247192
545.123230	-49.203175	797.799438	610.456421
545.552307	57.502232	795.348511	620.286072
545.981506	-61.623425	981.370056	719.322815
546.410583	-56.654953	1032.684570	763.474060
546.839539	10.377120	1022.913330	842.711853
547.268555	74.854752	1027.799194	897.389893
547.697449	50.063911	1198.596558	942.243652
548.126282	-14.440658	1208.344482	989.512939
548.555054	-61.623425	1522.040039	1107.549194
548.983887	-79.016136	1621.475952	1235.951172
549.412598	-11.958504	1952.850342	1394.118530
549.841309	7.895772	2304.560547	1648.935669
550.269958	-19.405548	2499.080811	1833.672607
550.698486	30.223766	2805.629395	2012.367798
551.127075	-93.928284	2903.609619	2238.017090
551.555481	-36.785702	3061.123535	2388.659180
551.983948	17.820408	3225.525879	2609.358643
552.412292	-54.171013	3332.599121	2715.520752
552.840698	10.377120	3484.684570	2805.624268
553.268860	30.223766	3657.882324	2976.824219
553.697205	-46.719551	3646.028809	3064.298096
554.125366	-66.592186	3655.511963	3069.861328
554.553467	-101.385796	3852.090820	3055.554199
554.981628	5.414319	4112.059082	3216.791504
555.409607	-2.030531	4192.286621	3453.805664
555.837646	-46.719551	4724.090820	3622.312012
556.265564	-46.719551	5019.503418	3919.895996
556.693481	-39.268906	5587.125488	4258.307129
557.121338	-31.819342	6191.498535	4771.809570
557.549133	-31.819342	6857.523438	5177.055664
557.976929	-51.687042	7517.774902	5715.219238
558.404602	-19.405548	8019.342285	6278.031250
558.832275	-31.819342	8864.750000	6847.523926
559.259888	-46.719551	9361.355469	7362.406250
559.687439	-16.923050	9745.649414	7734.816895
560.114929	-61.623425	10353.920898	8169.360840
560.542419	-29.336452	10632.451172	8418.013672
560.969788	-19.405548	10910.480469	8607.806641
561.397156	-36.785702	10814.123047	8823.091797
561.824524	-61.623425	11013.496094	8917.741211
562.251770	-6.994241	10876.874023	8935.906250
562.679016	0.451235	10767.042969	8857.929688
563.106140	35.184490	10508.971680	8726.862305
563.533264	-2.030531	10693.031250	8718.524414
563.960327	32.704178	10421.353516	8676.826172
564.387329	-56.654953	10636.939453	8739.747070
564.814331	-44.235897	10627.961914	8730.651367
565.241272	-64.107819	10932.880859	8870.044922
565.668213	-66.592186	11420.436523	9290.406250
566.094971	-96.414070	12198.046875	9705.002930
566.521790	-54.171013	13739.379883	10616.736328
566.948425	-21.888016	15869.539063	12092.779297
567.375183	20.301340	18894.779297	14352.067383
567.801819	-39.268906	25751.412109	18488.146484
568.228394	-49.203175	37821.898438	26106.052734
568.654846	27.743382	50464.406250	35116.679688
569.081421	45.104565	54174.062500	40475.753906
569.507874	-46.719551	48583.957031	39789.468750
569.934265	-19.405548	37300.710938	33975.878906
570.360596	-71.561501	28589.839844	28365.146484
570.786865	-34.302467	21978.898438	23192.259766
571.213074	-61.623425	18601.828125	18990.246094
571.639282	-88.957191	15935.280273	15647.397461
572.065430	-16.923050	14400.498047	13413.297852
572.491516	-16.923050	13701.863281	11988.938477
572.917603	-46.719551	12930.293945	11146.267578
573.343567	7.895772	12908.145508	10718.449219
573.769531	-36.785702	12786.281250	10501.480469
574.195435	-81.501144	12817.308594	10574.834961
574.621277	-41.752350	13213.594727	10524.687500
575.047119	-108.844276	13262.250000	10702.747070
575.472839	5.414319	13549.531250	10991.848633
575.898560	-9.476320	13750.413086	11263.290039
576.324158	2.932896	14393.895508	11456.158203
576.749817	-29.336452	14530.324219	11859.795898
577.175293	-21.888016	15152.269531	12239.538086
577.600830	-39.268906	15862.962891	12549.720703
578.026306	25.262760	16281.378906	13083.791992
578.451721	-21.888016	16684.158203	13520.815430
578.877136	-69.076790	17336.029297	14005.497070
579.302429	-66.592186	18177.740234	14396.823242
579.727661	15.339371	18879.476563	15126.649414
580.152832	2.932896	19384.601563	15723.405273
580.578064	-9.476320	20535.779297	16484.986328
581.003113	-41.752350	21368.693359	17159.613281
581.428223	-4.512402	22367.830078	18069.164063
581.853271	84.768242	23631.552734	18887.488281
582.278198	-61.623425	24143.421875	19690.109375
582.703125	-41.752350	25656.146484	20628.505859
583.127930	-11.958504	26867.126953	21633.453125
583.552795	-44.235897	28071.566406	22552.521484
583.977539	-66.592186	29293.029297	23328.843750
584.402283	-29.336452	30466.001953	24256.023438
584.826965	-14.440658	30933.328125	25036.267578
585.251587	-51.687042	31400.531250	25614.789063
585.676208	-2.030531	30737.507813	25419.900391
586.100647	-41.752350	29061.572266	24425.361328
586.525208	-19.405548	25651.716797	22257.923828
586.949524	2.932896	20404.375000	19180.484375
587.373962	0.451235	14534.723633	15171.293945
587.798218	12.858231	9553.630859	11149.250977
588.222534	-36.785702	5810.628418	7650.027344
588.646729	-36.785702	3676.845459	5102.982910
589.070984	-29.336452	2333.405029	3366.674561
589.495117	-6.994241	1536.599487	2208.338623
589.919128	-101.385796	1274.109131	1492.098877
590.343201	45.104565	1271.674438	1200.216309
590.767151	-2.030531	1602.083618	1290.333496
591.191101	-83.986382	2611.759521	1814.331055
591.614990	-21.888016	5061.643555	3108.004883
592.038818	-49.203175	8689.720703	5531.179688
592.462524	-39.268906	13405.936523	8767.030273
592.886292	-41.752350	18061.884766	12278.059570
593.310059	-44.235897	22242.541016	15549.447266
593.733582	-146.151276	25412.523438	18716.228516
594.157227	-21.888016	27760.279297	20930.158203
594.580750	27.743382	29030.417969	22619.970703
595.004272	-4.512402	30261.240234	23884.458984
595.427673	-61.623425	30448.195313	24444.507813
595.851074	-39.268906	29967.439453	24595.501953
596.274353	-106.358101	30143.275391	24759.078125
596.697632	-41.752350	29148.369141	24111.773438
597.120911	17.820408	28256.160156	23595.535156
597.544067	50.063911	27489.107422	23273.031250
597.967224	-44.235897	26944.841797	22651.501953
598.390320	-29.336452	26006.291016	22003.052734
598.813354	37.664696	25363.816406	21334.324219
599.236328	-79.016136	24437.148438	20700.068359
599.659241	-31.819342	23444.173828	19893.593750
600.082153	-44.235897	22875.941406	19236.611328
600.505005	17.820408	21864.699219	18656.472656
600.927795	59.981510	21232.710938	17860.759766
601.350525	-76.531113	20474.453125	17287.187500
601.773254	37.664696	19518.023438	16844.615234
602.195862	-2.030531	19080.628906	16149.241211
602.618408	-96.414070	18538.431641	15580.880859
603.040955	2.932896	17906.673828	15245.930664
603.463440	-74.046181	17454.109375	14696.733398
603.885925	-31.819342	16951.089844	14261.062500
604.308350	-54.171013	16336.118164	13585.594727
604.730652	-49.203175	15944.044922	13303.518555
605.152893	-26.853537	15373.952148	12826.906250
605.575195	64.939621	14844.747070	12640.679688
605.997375	-49.203175	14422.505859	12270.653320
606.419495	-16.923050	14087.781250	11900.626953
606.841553	12.858231	13609.152344	11618.322266
607.263672	-49.203175	13408.146484	11202.180664
607.685608	12.858231	12956.870117	10962.737305
608.107605	-59.139137	12418.015625	10463.292969
608.529480	-66.592186	12282.510742	10272.956055
608.951294	-31.819342	11701.580078	10009.535156
609.373108	-79.016136	11661.445313	9744.891602
609.794800	-31.819342	11089.594727	9453.374023
610.216553	74.854752	11062.741211	9233.778320
610.638123	5.414319	10717.706055	9104.577148
611.059753	52.543499	10578.582031	8826.878906
611.481262	42.624668	10430.341797	8728.376953
611.902832	-76.531113	10131.177734	8478.017578
612.324219	-74.046181	10140.184570	8244.689453
612.745605	-86.471733	9648.541992	8191.431152
613.166931	-11.958504	9420.197266	7948.455078
613.588196	-34.302467	9359.091797	7724.889648
614.009460	-24.370724	9193.749023	7670.656738
614.430664	67.418594	9239.069336	7594.235840
614.851807	-4.512402	10482.017578	8187.626953
615.272827	-6.994241	12934.724609	9710.271484
615.693909	-96.414070	16716.984375	11810.784180
616.114929	-46.719551	18072.812500	13501.671875
616.535889	-86.471733	16732.300781	13581.914063
616.956787	-11.958504	13529.655273	11978.550781
617.377563	-79.016136	11158.948242	10417.603516
617.798340	-51.687042	9770.480469	9417.175781
618.219055	-39.268906	8698.818359	8285.000000
618.639832	7.895772	7923.299316	7533.067383
619.060364	-19.405548	7313.390137	6719.054688
619.481018	-76.531113	7067.240723	6292.705566
619.901611	-56.654953	7032.695313	5962.494141
620.322083	-11.958504	6712.132324	5734.616699
620.742493	-49.203175	6395.383301	5493.871582
621.162842	-31.819342	6344.442871	5218.360352
621.583191	-74.046181	6207.729004	5233.163574
622.003418	20.301340	5950.108887	5079.582520
622.423706	-11.958504	5803.650391	5014.034180
622.843872	7.895772	5887.362305	4746.776855
623.264038	-69.076790	5796.671387	4677.907715
623.684143	-2.030531	5500.872559	4616.046387
624.104126	-24.370724	5358.535645	4557.287109
624.524170	20.301340	5255.759766	4372.971680
624.944031	-21.888016	5108.447754	4299.945313
625.364014	-111.330688	4979.690430	4259.878418
625.783752	-21.888016	4942.206543	4121.495605
626.203552	-9.476320	4834.373047	4079.788574
626.623230	-49.203175	4686.523926	3997.902588
627.042969	27.743382	4576.098145	3924.624756
627.462585	-4.512402	4559.642090	3837.887207
627.882141	-2.030531	4561.993652	3844.198242
628.301697	-39.268906	4390.244629	3637.329834
628.721130	-14.440658	4385.535645	3600.177002
629.140625	-4.512402	4291.310059	3496.551025
629.559998	5.414319	4197.003906	3476.764404
629.979309	55.022987	4060.115479	3438.760986
630.398560	7.895772	4081.368408	3395.198242
630.817810	-11.958504	3941.968994	3368.259277
631.237000	-2.030531	3979.790039	3288.192383
631.656067	-31.819342	3866.287598	3207.268066
632.075195	-39.268906	3762.136230	3150.898682
632.494202	-59.139137	3702.913574	3119.921875
632.913208	0.451235	3664.994141	3030.908447
633.332092	30.223766	3546.405029	3016.594971
633.750977	-54.171013	3591.484619	3003.074951
634.169739	-44.235897	3555.897217	2989.552734
634.588562	-34.302467	3525.044189	2964.890381
635.007263	-91.442619	3396.787598	2862.194092
635.425964	-21.888016	3361.132568	2737.855469
635.844543	-2.030531	3230.287354	2772.145020
636.263123	-19.405548	3299.299805	2779.320068
636.681641	-59.139137	3168.373535	2708.341064
637.100037	-14.440658	3199.335449	2645.291992
637.518494	-6.994241	3142.167969	2601.371582
637.936829	-21.888016	3230.287354	2630.121826
638.355164	-56.654953	3077.814697	2500.675293
638.773438	-26.853537	3082.583008	2518.265137
639.191650	15.339371	2896.443848	2460.685547
639.609863	-98.899811	3037.274414	2455.885498
640.027893	-24.370724	2999.103027	2449.485352
640.445984	-56.654953	2946.593262	2379.051270
640.863953	7.895772	2891.666260	2347.017334
641.281921	5.414319	2827.145996	2283.717773
641.699829	69.897461	2697.973877	2328.593506
642.117676	-6.994241	2676.427734	2326.189697
642.535461	5.414319	2748.228516	2201.920166
642.953247	-29.336452	2616.551270	2212.349854
643.370972	-93.928284	2741.050537	2199.513184
643.788635	37.664696	2645.296631	2120.046387
644.206177	-54.171013	2508.676025	2140.121094
644.623718	-9.476320	2494.282959	2148.952148
645.041260	10.377120	2518.270264	2060.598877
645.458618	-41.752350	2436.688232	2112.818359
645.876099	-26.853537	2511.074463	2087.917725
646.293396	-2.030531	2391.066162	2018.800659
646.710693	-49.203175	2446.290039	2067.027832
647.127991	-39.268906	2383.860596	1963.305054
647.545166	-11.958504	2434.287842	1968.132324
647.962341	-29.336452	2338.211670	1875.563354
648.379333	-26.853537	2227.595459	1860.259888
648.796448	-39.268906	2275.706787	1893.280273
649.213379	-44.235897	2157.787354	1832.061157
649.630310	-9.476320	2222.782959	1868.314819
650.047180	-31.819342	2205.936768	1903.747559
650.463989	-69.076790	2128.884766	1848.175659
650.880859	37.664696	2145.745850	1794.178955
651.297546	-51.687042	2136.111084	1711.906250
651.714233	-76.531113	2056.585938	1694.150024
652.130859	-59.139137	2049.352539	1665.086548
652.547485	10.377120	2078.281982	1664.279175
652.963928	-29.336452	2042.118774	1669.931152
653.380432	-21.888016	2073.461182	1651.358276
653.796814	-39.268906	2027.649292	1649.742676
654.213196	-41.752350	1950.436279	1560.045898
654.629578	-44.235897	1938.365479	1603.695068
655.045837	-6.994241	1991.464478	1620.663086
655.462036	-21.888016	1950.436279	1620.663086
655.878174	0.451235	1960.091797	1628.741943
656.294312	67.418594	1969.746094	1623.894653
656.710327	-4.512402	1996.290039	1602.887207
657.126404	15.339371	1919.048218	1556.002563
657.542358	-16.923050	1815.141968	1585.106445
657.958252	-39.268906	1824.813354	1526.079834
658.374084	-66.592186	1950.436279	1566.513550
658.789917	-14.440658	1861.070313	1541.447021
659.205688	-31.819342	1713.525391	1488.052124
659.621338	-86.471733	1703.840820	1428.952393
660.037048	27.743382	1771.607544	1407.891846
660.452637	-59.139137	1682.046387	1369.806763
660.868164	-76.531113	1657.823853	1454.055054
661.283691	-21.888016	1604.507813	1404.651367
661.699158	-66.592186	1694.155273	1333.324219
662.114502	5.414319	1652.978394	1286.276611
662.529846	-36.785702	1381.158325	1316.293091
662.945129	-44.235897	1599.659180	1297.635620
663.360413	7.895772	1492.913086	1254.624268
663.775635	-31.819342	1616.628296	1287.088013
664.190674	-79.016136	1536.599487	1276.538818
664.605835	-69.076790	1502.623169	1284.653931
665.020813	-26.853537	1594.810425	1258.683228
665.435791	-14.440658	1512.332397	1251.376953
665.850769	-21.888016	1488.057495	1230.267578
666.265625	15.339371	1456.489014	1198.591431
666.680420	-19.405548	1684.468262	1221.334717
667.095215	-64.107819	1507.477905	1296.823853
667.509949	-88.957191	1522.040039	1275.727295
667.924622	-24.370724	1488.057495	1260.306396
668.339233	-21.888016	1446.773071	1257.059570
668.753784	-64.107819	1395.744263	1223.771118
669.168335	-19.405548	1548.730225	1196.966797
669.582825	7.895772	1410.327393	1298.446899
669.997192	2.932896	1543.878296	1209.963867
670.411560	-31.819342	1485.629639	1254.624268
670.825867	-11.958504	1522.040039	1228.643433
671.240173	-9.476320	1541.452026	1161.213135
671.654358	-14.440658	1461.346680	1237.575317
672.068481	7.895772	1439.485229	1216.461426
672.482605	-9.476320	1507.477905	1215.649414
672.896667	2.932896	1427.337524	1167.714966
673.310669	-29.336452	1417.617676	1138.451538
673.724609	-16.923050	1305.753052	1149.020264
674.138489	-34.302467	1369.000977	1152.271606
674.552307	-31.819342	1296.017944	1067.682495
674.966064	37.664696	1458.917847	1094.534058
675.379822	-21.888016	1334.950928	1093.720581
675.793579	-9.476320	1254.629395	1060.357910
676.207153	-71.561501	1303.319336	1071.751709
676.620789	-11.958504	1371.432617	1062.799561
677.034241	-66.592186	1249.758545	1087.212158
677.447754	2.932896	1252.193970	1035.122437
677.861206	-41.752350	1193.722290	991.142212
678.274597	-11.958504	1181.534668	1043.263428
678.687866	-66.592186	1188.847412	960.991943
679.101135	12.858231	1079.080566	933.275330
679.514404	37.664696	1025.356323	914.519409
679.927551	-76.531113	1020.470215	947.135071
680.340698	-16.923050	993.591309	874.544983
680.753723	-98.899811	996.035339	847.610229
681.166748	-6.994241	976.481262	832.097534
681.579712	-61.623425	974.036621	815.764709
681.992615	-2.030531	974.036621	818.215210
682.405457	-31.819342	947.139832	792.075500
682.818298	-103.871895	900.658264	758.569702
683.231018	-46.719551	807.602234	733.225403
683.643738	2.932896	810.052734	770.829712
684.056335	-29.336452	939.802856	709.507568
684.468994	-76.531113	907.999634	675.142761
684.881531	-36.785702	824.753479	702.145081
685.293945	-4.512402	856.594666	700.508728
685.706482	-6.994241	800.250305	641.579163
686.118774	-31.819342	851.696899	633.390381
686.531128	-14.440658	783.092834	704.599304
686.943481	-21.888016	770.835083	680.053162
687.355713	-44.235897	731.594910	689.872375
687.767883	-61.623425	746.312561	633.390381
688.179932	2.932896	773.286804	650.585632
688.592041	-41.752350	716.874146	581.778137
689.004089	-16.923050	665.325928	563.744812
689.416016	-16.923050	726.688538	572.762085
689.827881	-6.994241	738.954285	634.209473
690.239868	-101.385796	726.688538	581.777832
690.651611	0.451235	719.327881	609.637268
691.063354	20.301340	660.414490	623.562561
691.475098	-34.302467	670.237061	589.973083
691.886719	-29.336452	645.678162	548.167358
692.298340	2.932896	603.907532	538.326660
692.709900	-2.030531	714.420288	548.987244
693.121460	-51.687042	650.590698	527.664490
693.532837	7.895772	707.058533	563.745056
693.944214	-14.440658	616.195679	515.359863
694.355652	-91.442619	660.414490	516.180115
694.766846	35.184490	640.765442	483.356567
695.178101	-6.994241	591.617126	502.232147
695.589294	2.932896	557.191589	471.864380
696.000366	20.301340	675.147827	510.437225
696.411438	12.858231	567.029175	489.922516
696.822510	-61.623425	537.511597	475.147919
697.233459	-21.888016	532.590759	504.693787
697.644409	-41.752350	490.748383	466.117584
698.055298	-41.752350	547.352234	478.431519
698.466064	-54.171013	623.567688	449.695099
698.876831	-29.336452	488.286194	492.384796
699.287537	-39.268906	557.191589	537.506653
699.698181	2.932896	611.280579	487.460419
700.108826	-9.476320	608.823181	493.205383
700.519348	-14.440658	535.051331	480.894257
700.929810	50.063911	431.630829	449.695099
701.340271	27.743382	547.352234	425.053680
701.750732	45.104565	574.406616	410.264343
702.161011	25.262760	623.567688	426.696869
702.571350	-24.370724	530.130188	425.875305
702.981567	15.339371	537.511597	384.785797
703.391724	-49.203175	559.650940	439.839661
703.801880	20.301340	498.134277	423.410767
704.211914	-14.440658	539.971924	413.551147
704.621948	20.301340	537.511597	455.443390
705.031921	-19.405548	503.057831	437.375641
705.441895	-54.171013	456.269714	395.471588
705.851746	12.858231	488.286194	411.085999
706.261536	-61.623425	414.377991	378.208954
706.671265	-71.561501	411.912842	389.717896
707.081055	-54.171013	466.122650	412.729523
707.490662	-21.888016	411.912842	404.512024
707.900330	-51.687042	365.058472	399.580902
708.309814	-54.171013	520.287048	390.539795
708.719299	5.414319	446.415253	399.580902
709.128784	67.418594	443.951508	381.497406
709.538147	-103.871895	411.912842	377.386902
709.947510	-34.302467	439.023468	375.742462
710.356750	-56.654953	439.023468	400.402985
710.766052	-39.268906	404.517090	351.895050
711.175171	10.377120	340.384369	354.362488
711.584290	-4.512402	451.342712	328.861359
711.993347	-41.752350	394.654694	346.137421
712.402405	-49.203175	475.974121	394.649719
712.811401	-66.592186	453.806213	356.829834
713.220276	-91.442619	362.591461	327.215820
713.629150	-81.501144	394.654694	371.631592
714.037964	-91.442619	434.095184	305.819244
714.446777	-46.719551	431.630829	338.734009
714.855408	-59.139137	335.448303	311.580597
715.264099	-34.302467	337.916382	314.872498
715.672668	-36.785702	505.519318	379.853210
716.081177	-16.923050	485.824036	338.734009
716.489746	-116.303711	357.657257	298.411102
716.898132	30.223766	458.733093	323.101501
717.306519	-41.752350	335.448303	304.173096
717.714844	-34.302467	325.575165	317.341248
718.123108	22.782036	310.762604	322.278717
718.531372	-2.030531	406.982483	304.996124
718.939514	114.498901	310.762604	295.118164
719.347595	-16.923050	424.237335	289.355347
719.755676	-14.440658	308.293610	293.471741
720.163696	-31.819342	406.982483	292.648560
720.571716	15.339371	399.586151	286.062225
720.979614	-51.687042	310.762604	304.173096
721.387451	2.932896	369.992096	281.945221
721.795227	-36.785702	320.638062	319.810150
722.202942	25.262760	288.537231	273.710815
722.610718	-41.752350	369.992096	304.173096
723.018311	-6.994241	318.169342	260.533203
723.425903	42.624668	362.591461	284.415527
723.833374	-44.235897	308.293610	238.289749
724.240906	-41.752350	308.293610	263.004242
724.648376	-36.785702	337.916382	286.885498
725.055725	-51.687042	300.885590	256.414764
725.463013	-2.030531	251.477203	310.757660
725.870300	-26.853537	320.638062	291.002045
726.277466	0.451235	416.842987	245.705338
726.684631	-9.476320	350.255188	239.113922
727.091797	-24.370724	286.067200	296.764709
727.498779	-61.623425	246.534241	270.416595
727.905823	7.895772	310.762604	243.233490
728.312805	-103.871895	332.980286	256.414764
728.719666	-98.899811	320.638062	232.521912
729.126526	-29.336452	268.774597	225.928940
729.533264	-19.405548	276.186279	253.119644
729.940063	-96.414070	204.502777	257.238434
730.346680	-31.819342	298.416199	227.577316
730.753357	37.664696	293.476837	256.414764
731.159851	-31.819342	281.127014	242.409515
731.566406	-54.171013	249.005844	289.355347
731.972900	-86.471733	263.833038	269.593140
732.379272	-16.923050	367.525391	254.767166
732.785645	-14.440658	293.476837	276.181183
733.191895	-91.442619	239.119019	207.795273
733.598206	15.339371	226.758255	186.357391
734.004333	-76.531113	236.647034	241.585800
734.410522	30.223766	214.395142	173.986145
734.816528	-2.030531	268.774597	230.873672
735.222656	-76.531113	256.419891	211.092804
735.628662	-26.853537	328.043610	211.917053
736.034546	-56.654953	239.119019	224.280670
736.440430	-69.076790	263.833038	220.984100
736.846252	-4.512402	293.476837	219.335541
737.252014	-49.203175	313.231659	188.006821
737.657715	-98.899811	261.362030	213.565552
738.063354	57.502232	246.534241	241.585663
738.468933	-21.888016	231.702911	267.946014
738.874512	-49.203175	310.762604	263.004242
739.280029	-19.405548	234.174957	192.954605
739.685486	-44.235897	209.449097	214.389893
740.090881	-36.785702	241.590775	209.443848
740.496216	42.624668	278.656708	229.225525
740.901550	52.543499	253.948593	218.511246
741.306702	-9.476320	249.005844	272.063660
741.711914	-11.958504	253.948593	202.024307
742.117004	-21.888016	244.062561	234.993942
742.522095	-9.476320	320.638062	181.409363
742.927124	10.377120	286.067200	247.352921
743.332031	-54.171013	179.764984	229.225525
743.737000	-96.414070	231.702911	195.428345
744.141785	-86.471733	194.608841	159.962372
744.546631	-111.330688	283.597076	234.993942
744.951355	-24.370724	236.647034	226.753265
745.356079	-19.405548	281.127014	192.130096
745.760620	2.932896	300.885590	186.357391
746.165283	-4.512402	256.419891	186.357391
746.569824	-6.994241	221.813324	213.565552
746.974243	-79.016136	278.656708	150.886307
747.378723	-96.414070	246.534241	148.410904
747.783020	-66.592186	291.007141	169.037109
748.187378	-54.171013	266.303802	108.789024
748.591614	-39.268906	202.029404	164.087402
748.995850	25.262760	253.948593	169.037109
749.399963	15.339371	286.067200	154.186920
749.804077	79.811768	211.922165	137.682480
750.208130	-51.687042	263.833038	212.741302
750.612122	-24.370724	226.758255	151.711639
751.016052	-9.476320	150.066345	143.459518
751.419922	-49.203175	192.135071	200.375381
751.823792	-46.719551	281.127014	168.212006
752.227478	62.460686	152.541809	158.312317
752.631226	-56.654953	266.303802	162.437332
753.034851	-93.928284	184.713287	213.565552
753.438477	-71.561501	214.395142	186.357391
753.842102	-76.531113	239.119019	150.886307
754.245544	-54.171013	132.735474	168.212006
754.648987	-74.046181	224.285782	143.459656
755.052368	-61.623425	221.813324	149.235992
755.455750	-16.923050	246.534241	173.161377
755.859009	-118.790459	150.066345	182.234009
756.262268	-46.719551	167.392273	164.912430
756.665405	-83.986382	152.541809	144.284683
757.068542	-46.719551	182.239120	161.612396
757.471680	-21.888016	135.211655	126.126884
757.874634	-66.592186	125.306450	145.935394
758.277588	10.377120	147.590759	117.045876
758.680420	55.022987	216.867874	138.507858
759.083374	-2.030531	105.491196	162.437332
759.486084	-26.853537	137.687729	145.935394
759.888916	17.820408	169.867050	114.568954
760.291504	-44.235897	150.066345	107.963379
760.694214	-9.476320	204.502777	136.857224
761.096802	-54.171013	125.306450	70.793877
761.499268	-81.501144	162.442566	108.789024
761.901733	-2.030531	229.230637	99.705551
762.304199	-29.336452	211.922165	114.568954
762.706543	0.451235	174.816162	155.837082
763.108826	0.451235	127.782944	118.697060
763.511108	-9.476320	179.764984	108.789024
763.913208	20.301340	105.491196	139.333099
764.315369	-29.336452	130.259186	109.614799
764.717529	-96.414070	65.841232	78.229485
765.119568	-39.268906	192.135071	136.031815
765.521545	-11.958504	145.115234	155.011948
765.923462	12.858231	315.700592	198.726547
766.325317	-21.888016	441.487549	323.101501
766.727112	-34.302467	461.196320	371.631317
767.128845	-29.336452	365.058472	312.403503
767.530518	-21.888016	283.597076	262.180634
767.932251	-29.336452	192.135071	264.651489
768.333862	-81.501144	239.119019	178.935059
768.735413	-19.405548	169.867050	173.986145
769.136841	-86.471733	286.067200	176.460785
769.538269	-54.171013	281.127014	187.182251
769.939636	15.339371	325.575165	272.887360
770.341003	-76.531113	310.762604	281.121918
770.742249	-29.336452	246.534241	197.901978
771.143433	-79.016136	283.597076	177.285507
771.544617	-66.592186	224.285782	159.137421
771.945740	12.858231	150.066345	158.312317
772.346802	-29.336452	202.029404	139.333099
772.747803	25.262760	100.536430	128.603333
773.148682	-24.370724	135.211655	121.173676
773.549622	-34.302467	162.442566	88.142548
773.950439	-11.958504	73.277596	93.924324
774.351196	-29.336452	159.967499	92.272331
774.751892	-29.336452	100.536430	99.705551
775.152588	-44.235897	125.306450	80.707901
775.553162	-79.016136	103.013931	107.137703
775.953735	-31.819342	70.798866	87.316612
776.354309	-31.819342	115.399635	84.838333
776.754639	-14.440658	120.353317	63.357079
777.155090	-2.030531	132.735474	52.613491
777.555420	12.858231	110.445686	80.707901
777.955750	-36.785702	120.353317	60.051628
778.355896	10.377120	174.816162	48.480972
778.756104	7.895772	132.735474	79.881866
779.156189	62.460686	85.669556	79.881866
779.556274	5.414319	135.211655	113.743248
779.956299	5.414319	100.536430	84.838333
780.356201	-21.888016	46.006340	136.857224
780.756165	-19.405548	135.211655	84.838333
781.156006	-2.030531	130.259186	91.446449
781.555786	-71.561501	125.306450	67.488701
781.955505	12.858231	120.353317	73.272469
782.355225	5.414319	152.541809	88.968475
782.754761	-56.654953	150.066345	98.053703
783.154358	-6.994241	145.115234	112.917656
783.553894	-41.752350	83.191345	98.053703
783.953369	-26.853537	117.876526	122.824883
784.352783	-91.442619	93.103455	158.312317
784.752075	37.664696	53.445301	61.704376
785.151367	-14.440658	152.541809	131.079559
785.550598	-19.405548	46.006340	103.834534
785.949768	-16.923050	23.684288	101.357063
786.348877	-96.414070	103.013931	135.206528
786.747986	-79.016136	68.320168	85.664436
787.147034	-16.923050	55.924614	98.879501
787.545959	-19.405548	155.017181	79.055817
787.944885	-51.687042	50.965752	95.576141
788.343750	-6.994241	80.713028	107.963379
788.742493	-49.203175	150.066345	74.098732
789.141235	-29.336452	147.590759	125.301338
789.539917	30.223766	184.713287	73.272469
789.938538	32.704178	100.536430	93.098198
790.337158	30.223766	147.590759	122.824883
790.735718	-29.336452	202.029404	150.061218
791.134094	2.932896	127.782944	126.126884
791.532532	55.022987	127.782944	63.357079
791.930847	-6.994241	120.353317	103.834534
792.329224	-49.203175	174.816162	52.613491
792.727417	32.704178	122.829872	107.137573
793.125610	-6.994241	147.590759	127.777954
793.523682	-44.235897	182.239120	117.871544
793.921753	-11.958504	135.211655	164.087402
794.319824	-29.336452	100.536430	80.707901
794.717773	-9.476320	162.442566	93.924324
795.115723	-11.958504	85.669556	67.488838
795.513550	-19.405548	70.798866	73.272469
795.911377	-61.623425	140.163574	117.871544
796.309082	12.858231	88.147537	105.486214
796.706787	12.858231	152.541809	35.254501
797.104370	-46.719551	142.639450	107.137703
797.501953	-91.442619	174.816162	89.794388
797.899536	-19.405548	184.713287	97.227905
798.296936	-6.994241	174.816162	121.999153
798.694397	-19.405548	58.403957	118.697060
799.091736	-88.957191	174.816162	98.879768
799.489014	-34.302467	122.829872	100.531311
799.886230	2.932896	157.492325	107.137573
800.283447	-51.687042	150.066345	113.743248
800.680542	-44.235897	206.975922	132.730347
801.077637	-56.654953	107.968491	107.963379
801.474670	-16.923050	164.917404	94.750168
801.871643	-36.785702	159.967499	72.446327
802.268555	0.451235	167.392273	125.301338
802.665405	-9.476320	140.163574	130.254196
803.062256	-36.785702	164.917404	161.612396
803.458923	-34.302467	182.239120	181.409363
803.855652	-36.785702	122.829872	145.935394
804.252258	-88.957191	169.867050	160.787323
804.648804	0.451235	177.290634	104.660248
805.045410	-88.957191	120.353317	141.809143
805.441833	-21.888016	192.135071	115.394516
805.838257	-19.405548	147.590759	122.824883
806.234619	94.680092	155.017181	99.705551
806.630859	-31.819342	246.534241	153.361877
807.027100	35.184490	244.062561	121.999428
807.423279	-31.819342	204.502777	121.173676
807.819458	27.743382	162.442566	160.787460
808.215515	-44.235897	253.948593	121.173676
808.611572	-31.819342	137.687729	140.983795
809.007507	-6.994241	219.340668	146.760529
809.403381	-34.302467	147.590759	141.809143
809.799194	-29.336452	155.017181	173.986145
810.195068	-26.853537	155.017181	147.585785
810.590759	42.624668	179.764984	142.634338
810.986450	57.502232	239.119019	138.507858
811.382080	-49.203175	234.174957	137.682617
811.777649	35.184490	130.259186	135.206528
812.173157	-93.928284	187.187363	183.058792
812.568665	17.820408	308.293610	176.460648
812.964050	-16.923050	258.890930	188.831528
813.359375	-34.302467	266.303802	178.935059
813.754639	30.223766	273.715912	244.881393
814.149841	-24.370724	246.534241	239.113922
814.545105	30.223766	406.982483	265.475159
814.940186	-44.235897	421.772583	280.298431
815.335266	-41.752350	517.825989	406.155670
815.730347	-4.512402	684.968018	429.161407
816.125244	25.262760	805.151672	560.465881
816.520203	-46.719551	1127.886230	751.212708
816.914978	-21.888016	1749.831421	1106.735840
817.309753	-56.654953	2910.774658	1711.906250
817.704468	15.339371	4782.765137	2751.413574
818.099182	-24.370724	7039.604980	4110.479980
818.493774	-41.752350	8464.352539	5422.331055
818.888367	7.895772	9598.835938	6535.740723
819.282898	72.376091	9878.782227	7263.580078
819.677307	67.418594	9912.610352	7743.216797
820.071716	-36.785702	9295.696289	7740.161621
820.466003	-69.076790	7840.920898	7341.727539
820.860291	-29.336452	6286.532227	6305.061035
821.254517	-36.785702	4909.398438	5261.206543
821.648743	50.063911	3800.021240	4291.304199
822.042786	-64.107819	2980.011719	3427.673584
822.436890	-44.235897	2138.520020	2618.143799
822.830872	-54.171013	1737.731201	2040.506104
823.224792	12.858231	1458.917847	1602.886597
823.618774	-86.471733	1059.549072	1289.521851
824.012512	-31.819342	969.146973	1103.482300
824.406311	-36.785702	795.348511	863.119446
824.799988	-51.687042	711.966431	733.225403
825.193665	57.502232	579.324158	581.777832
825.587280	-66.592186	547.352234	466.117584
825.980835	-9.476320	350.255188	452.980011
826.374329	-46.719551	382.324646	333.797821
826.767761	-101.385796	298.416199	333.797821
827.161194	-86.471733	340.384369	296.764709
827.554443	-54.171013	266.303802	221.808228
827.947754	-64.107819	192.135071	178.110352
828.340942	-61.623425	216.867874	217.687088
828.734131	47.584221	182.239120	156.662094
829.127136	-64.107819	167.392273	117.045876
829.520264	-49.203175	162.442566	124.475769
829.913208	-46.719551	152.541809	139.333099
830.306152	15.339371	135.211655	91.446320
830.699097	-31.819342	85.669556	99.705551
831.091797	-29.336452	169.867050	77.403542
831.484619	-91.442619	46.006340	80.707901
831.877319	-31.819342	95.581261	84.838333
832.270020	-61.623425	105.491196	72.446327
832.662537	-9.476320	100.536430	84.838333
833.055054	-39.268906	100.536430	81.533936
833.447510	-26.853537	98.058830	108.789162
833.839966	-83.986382	46.006340	63.357079
834.232361	-98.899811	63.362206	80.707901
834.624634	17.820408	135.211655	28.640297
835.016907	-14.440658	21.203497	26.159714
835.409058	-36.785702	23.684288	52.613762
835.801208	-54.171013	21.203497	54.266579
836.193298	52.543499	53.445301	37.734840
836.585327	-49.203175	3.835317	91.446320
836.977295	-24.370724	48.486099	-5.269294
837.369202	-21.888016	135.211655	48.480972
837.761047	47.584221	60.883202	36.081429
838.152832	-19.405548	46.006340	43.521492
838.544617	30.223766	18.722736	31.947628
838.936218	20.301340	41.046658	41.041393
839.327942	-49.203175	38.566589	20.371506
839.719421	10.377120	88.147537	40.214806
840.111023	-46.719551	-11.055720	20.371506
840.502380	7.895772	11.279428	40.214806
840.893860	12.858231	-48.299953	31.120914
841.285217	-31.819342	78.234741	5.484501
841.676453	-21.888016	-60.719875	15.409542
842.067749	-24.370724	43.526615	-1.960340
842.458862	32.704178	65.841232	32.774330
842.849976	-46.719551	28.645426	11.274300
843.241028	-36.785702	58.403957	50.960491
843.632019	-54.171013	36.086555	8.793123
844.022949	-26.853537	18.722736	7.138903
844.413879	-31.819342	36.086555	13.755641
844.804749	2.932896	-35.882538	-10.233412
845.195496	-49.203175	-13.537971	25.333054
845.586182	-98.899811	-70.657799	6.311843
845.976807	-11.958504	23.684288	38.561462
846.367432	-71.561501	-68.173126	-11.060986
846.757996	-81.501144	50.965752	-9.405985
847.148499	-46.719551	-50.783649	22.852198
847.538879	-39.268906	-30.916388	-10.233412
847.929260	-36.785702	-43.332615	37.734840
848.319641	-24.370724	50.965752	37.734840
848.709839	-59.139137	33.606281	23.679026
849.100098	-24.370724	53.445301	7.965951
849.490234	59.981510	83.191345	-34.232372
849.880310	-46.719551	28.645426	34.427834
850.270325	-16.923050	68.320168	-25.955790
850.660339	-74.046181	-58.235626	-45.821503
851.050171	-34.302467	-8.573575	29.467045
851.440125	0.451235	-43.332615	-3.614861
851.829895	20.301340	68.320168	-29.266230
852.219604	-19.405548	26.164974	-20.162767
852.609314	22.782036	21.203497	0.521288
852.998901	-54.171013	-83.082489	1.348700
853.388550	2.932896	-18.502651	12.928539
853.778015	7.895772	21.203497	-13.543101
854.167480	-21.888016	6.316836	15.409542
854.556885	22.782036	-23.467751	30.294054
854.946228	-31.819342	55.924614	-4.442072
855.335571	-36.785702	41.046658	3.003082
855.724731	-61.623425	-3.609731	-42.509991
856.113953	-24.370724	26.164974	-17.680372
856.503052	-49.203175	13.760635	-15.197948
856.892151	-88.957191	-8.573575	28.640297
857.281067	-14.440658	-8.573575	-15.197948
857.670105	27.743382	43.526615	-11.060716
858.058960	-69.076790	-30.916388	-1.960340
858.447754	-79.016136	3.835317	-32.576721
858.836609	-83.986382	31.125904	-16.852976
859.225281	-36.785702	-23.467751	-21.817801
859.613892	-41.752350	8.798252	-35.060017
860.002502	-9.476320	31.125904	-26.783316
860.391052	-41.752350	21.203497	-36.715469
860.779541	-11.958504	-50.783649	6.311843
861.167969	-49.203175	-40.849106	66.662483
861.556335	-51.687042	60.883202	28.640297
861.944702	-19.405548	-60.719875	7.965951
862.332947	-61.623425	-25.950525	36.081429
862.721069	-6.994241	13.760635	14.582598
863.109253	2.932896	70.798866	-49.960915
863.497314	-46.719551	1.353829	-23.473015
863.885376	32.704178	-50.783649	-33.404472
864.273315	-51.687042	53.445301	3.003082
864.661255	-79.016136	3.835317	-6.924044
865.049072	-64.107819	16.241737	-11.888301
865.436890	-6.994241	8.798252	16.236475
865.824707	-11.958504	-50.783649	-15.197948
866.212280	-16.923050	-28.433403	-2.787527
866.599915	-21.888016	23.684288	4.657283
866.987488	-4.512402	-40.849106	-20.990345
867.375061	30.223766	-97.995819	-35.060017
867.762451	-166.058273	3.835317	-0.305864
868.149841	-83.986382	-6.091668	-21.817801
868.537170	-4.512402	-73.142578	-11.060716
868.924438	-34.302467	16.241737	49.307583
869.311707	2.932896	-16.020191	-10.233412
869.698853	-24.370724	-23.467751	34.427834
870.085938	22.782036	-3.609731	-0.305864
870.472961	-39.268906	3.835317	-49.132927
870.859985	22.782036	-48.299953	-25.128143
871.246887	-34.302467	-48.299953	5.484501
871.633789	-79.016136	93.103455	-56.584698
872.020569	-19.405548	-28.433403	7.965951
872.407349	-2.030531	-40.849106	-11.888301
872.794067	-118.790459	-33.399342	-3.614861
873.180725	-61.623425	-8.573575	12.101291
873.567322	-31.819342	8.798252	-8.578705
873.953796	0.451235	-18.502651	9.620149
874.340332	-6.994241	-13.537971	-69.834785
874.726624	59.981510	-11.055720	12.101291
875.113037	27.743382	-16.020191	-40.854103
875.499329	-36.785702	-30.916388	5.484501
875.885559	-14.440658	-83.082489	12.928539
876.271729	-111.330688	-28.433403	20.371506
876.657898	-91.442619	75.756218	-1.133029
877.044006	-14.440658	3.835317	-38.370968
877.429932	-16.923050	63.362206	-42.509991
877.815918	12.858231	21.203497	-31.749115
878.201782	47.584221	-25.950525	-6.924179
878.587585	25.262760	16.241737	-2.787662
878.973389	-21.888016	-8.573575	-19.335337
879.359070	42.624668	-13.537971	-36.715469
879.744751	0.451235	-95.509972	-13.542966
880.130310	-4.512402	-35.882538	-12.715628
880.515930	-9.476320	-83.082489	-42.509857
880.901367	-19.405548	-20.985216	-35.060017
881.286804	5.414319	-68.173126	21.198370
881.672180	-21.888016	-65.688690	-18.507780
882.057434	22.782036	-45.816231	8.793123
882.442749	47.584221	16.241737	-44.993439
882.827942	-56.654953	-100.481636	-23.473015
883.213013	0.451235	28.645426	-39.198669
883.598145	-83.986382	-16.020191	-10.233412
883.983154	17.820408	-43.332615	16.236610
884.368042	27.743382	3.835317	-31.749115
884.753052	-51.687042	-75.627327	-1.960204
885.137817	-6.994241	-43.332615	-33.404472
885.522644	64.939621	36.086555	0.521558
885.907349	-54.171013	-6.091668	0.521558
886.292053	-49.203175	-73.142578	33.601154
886.676636	-64.107819	18.722736	4.657283
887.061157	-76.531113	-107.940132	-33.404472
887.445740	-103.871895	-115.399452	-19.335337
887.830078	-21.888016	-33.399342	-8.578705
888.214539	-44.235897	-35.882538	-47.477123
888.598816	-41.752350	-16.020191	0.521558
888.983093	-54.171013	-40.849106	-1.960340
889.367249	-46.719551	-58.235626	-32.576855
889.751465	-36.785702	-18.502651	12.101291
890.135498	-39.268906	13.760635	-5.269294
890.519531	-16.923050	-48.299953	-10.233412
890.903503	-41.752350	-3.609731	-11.060716
891.287415	-51.687042	-35.882538	-32.576721
891.671326	-19.405548	-8.573575	-18.507780
892.055054	-86.471733	23.684288	3.003082
892.438843	47.584221	-18.502651	8.793123
892.822510	-108.844276	-28.433403	-26.783316
893.206116	-59.139137	-18.502651	-0.305864
893.589661	2.932896	46.006340	-11.060986
893.973206	15.339371	55.924614	-68.178261
894.356628	-11.958504	3.835317	-20.990211
894.739990	17.820408	-16.020191	-17.680372
895.123352	-39.268906	-23.467751	-21.817801
895.506592	-31.819342	28.645426	-42.509991
895.889832	-71.561501	-18.502651	-14.370452
896.272949	-51.687042	16.241737	7.138903
896.656067	37.664696	-38.365837	12.101561
897.039063	-26.853537	-25.950525	-21.817801
897.422058	-11.958504	-3.609731	9.620149
897.804993	-113.817215	3.835317	5.484501
898.187866	-26.853537	-43.332615	-40.026649
898.570618	-46.719551	1.353829	-17.680372
898.953369	-16.923050	3.835317	-12.715763
899.336121	-24.370724	11.279428	-21.817801
899.718689	-76.531113	-35.882538	-14.370452
900.101257	-9.476320	-1.127899	-16.025322
900.483704	-66.592186	33.606281	-17.680372
900.866211	-91.442619	-20.985216	-74.804115
901.248596	-44.235897	-20.985216	-19.335337
901.630920	-41.752350	-23.467751	-39.198669
902.013184	-29.336452	-90.538742	-34.232105
902.395386	-71.561501	-38.365837	-22.645267
902.777588	27.743382	-33.399342	10.447297
903.159668	-36.785702	3.835317	-48.304955
903.541687	-26.853537	-53.267578	-44.165657
903.923645	-54.171013	-25.950525	-5.269294
904.305603	-49.203175	26.164974	9.620149
904.687500	-4.512402	-88.053215	22.025356
905.069275	40.144665	-70.657799	-12.715628
905.451050	-11.958504	13.760635	-13.543101
905.832642	-69.076790	28.645426	-22.645538
906.214294	-9.476320	53.445301	-28.438400
906.595825	-36.785702	3.835317	-35.060017
906.977417	-41.752350	-23.467751	-46.649307
907.358826	-54.171013	11.279428	-52.444813
907.740234	-4.512402	-78.112320	-22.645538
908.121582	-34.302467	-35.882538	-6.096798
908.502869	-19.405548	-6.091668	-19.335337
908.884033	-116.303711	-60.719875	3.830189
909.265198	-4.512402	-20.985216	-24.300507
909.646301	2.932896	28.645426	-39.198669
910.027344	-66.592186	-45.816231	-25.128143
910.408325	-11.958504	-1.127899	-32.576855
910.789246	-101.385796	-1.127899	-31.749115
911.170105	-41.752350	-60.719875	-24.300507
911.550903	45.104565	-40.849106	-54.928684
911.931641	-36.785702	-55.751617	-7.751436
912.312317	-36.785702	-20.985216	-13.543101
912.692932	-11.958504	-8.573575	-4.442072
913.073547	-59.139137	-80.597420	-42.509991
913.453979	2.932896	-38.365837	-16.852707
913.834473	22.782036	-13.537971	-61.553162
914.214783	-24.370724	3.835317	7.966086
914.595154	-69.076790	-35.882538	-20.990345
914.975464	-46.719551	-60.719875	-23.473015
915.355652	-88.957191	-33.399342	13.755641
915.735840	-39.268906	-38.365837	-44.165520
916.115845	-21.888016	-78.112320	-34.232372
916.495972	-39.268906	-6.091668	-40.026382
916.875854	-41.752350	3.835317	-35.060017
917.255859	-69.076790	-40.849106	-21.817801
917.635620	-11.958504	-28.433403	-18.507780
918.015503	-69.076790	23.684288	-37.543144
918.395203	-61.623425	-16.020191	-34.232372
918.774902	-21.888016	-48.299953	-25.128008
919.154480	-44.235897	-68.173126	-43.337749
919.534058	0.451235	-88.053215	3.003082
919.913574	15.339371	8.798252	3.003082
920.292969	-34.302467	3.835317	28.640297
920.672363	-131.225632	-33.399342	-33.404472
921.051636	10.377120	-53.267578	-13.542966
921.430969	-41.752350	-28.433403	-22.645538
921.810181	-4.512402	-1.127899	-58.240894
922.189331	-39.268906	-48.299953	-16.025322
922.568420	22.782036	-35.882538	-25.955654
922.947388	-96.414070	-48.299953	32.774330
923.326416	-56.654953	-38.365837	17.063532
923.705261	-21.888016	-18.502651	-23.473015
924.084106	12.858231	-11.055720	-4.442072
924.462891	-9.476320	-11.055720	-56.584698
924.841675	-49.203175	33.606281	-28.438400
925.220337	-24.370724	-18.502651	0.521288
925.598938	-93.928284	-30.916388	-11.888301
925.977478	62.460686	-1.127899	-10.233412
926.355957	-29.336452	-13.537971	-11.888301
926.734436	-86.471733	38.566589	-24.300507
927.112732	-54.171013	-40.849106	-43.337749
927.491089	-49.203175	-1.127899	-5.269564
927.869324	-2.030531	-75.627327	-30.093937
928.247559	-116.303711	-23.467751	-16.852707
928.625671	-26.853537	-30.916388	-38.370834
929.003723	-118.790459	-13.537971	-30.093937
929.381775	-86.471733	-43.332615	25.333054
929.759705	0.451235	28.645426	-45.821503
930.137634	-56.654953	18.722736	-10.233412
930.515381	-29.336452	-70.657799	-35.060017
930.893250	20.301340	-83.082489	-40.854103
931.270935	-76.531113	-58.235626	-62.381187
931.648560	-31.819342	-135.295654	-2.787527
932.026123	-24.370724	-33.399342	-40.854103
932.403687	-11.958504	-8.573575	-19.335337
932.781250	-2.030531	-70.657799	3.830189
933.158630	-123.764259	-107.940132	-40.854374
933.536011	-64.107819	-33.399342	-17.680103
933.913208	-6.994241	46.006340	4.657418
934.290527	-44.235897	-23.467751	-69.006386
934.667664	15.339371	-18.502651	-22.645267
935.044800	-46.719551	21.203497	-23.473015
935.421814	-16.923050	-20.985216	-11.888301
935.798889	-21.888016	-1.127899	-19.335337
936.175842	2.932896	-45.816231	-34.232372
936.552673	2.932896	3.835317	-13.543101
936.929504	-106.358101	-8.573575	-20.990345
937.306274	35.184490	-18.502651	-35.060017
937.683044	-44.235897	-16.020191	-49.960915
938.059570	-2.030531	-1.127899	-37.543144
938.436218	47.584221	21.203497	-40.026382
938.812744	-16.923050	31.125904	-81.430992
939.189148	-51.687042	-28.433403	-11.060986
939.565613	2.932896	-88.053215	-25.955654
939.941956	52.543499	-45.816231	-38.370834
940.318237	42.624668	-38.365837	-18.507915
940.694458	17.820408	-83.082489	-16.025322
941.070557	-36.785702	-60.719875	1.348700
941.446655	-106.358101	-45.816231	13.755507
941.822693	-26.853537	-38.365837	-71.491089
942.198669	-71.561501	11.279428	-51.616653
942.574646	-29.336452	-73.142578	-39.198669
942.950562	-71.561501	-18.502651	-32.576721
943.326294	-11.958504	-53.267578	-25.955654
943.702026	-26.853537	-6.091668	-27.610851
944.077698	-21.888016	-53.267578	-57.412655
944.453369	-61.623425	-8.573575	-32.576721
944.828918	-49.203175	-53.267578	-7.751436
945.204468	-106.358101	-18.502651	-7.751301
945.579834	-54.171013	-48.299953	-44.993439
945.955261	-39.268906	-85.567802	-50.788780
946.330627	-44.235897	-13.537971	-9.405985
946.705811	-46.719551	-23.467751	-20.162767
947.081055	-64.107819	-48.299953	-8.578705
947.456177	-74.046181	-16.020191	-34.232372
947.831238	-76.531113	-3.609731	-7.751436
948.206238	-4.512402	-25.950525	-11.888301
948.581238	-66.592186	-43.332615	-27.610851
948.956116	-26.853537	8.798252	4.657283
949.330933	-19.405548	3.835317	-42.509991
949.705811	-69.076790	-65.688690	-67.350014
950.080505	-21.888016	-3.609731	-11.888301
950.455139	-6.994241	-63.204231	-21.817801
950.829773	-36.785702	-63.204231	-30.921520
951.204346	7.895772	-88.053215	-22.645538
951.578735	-54.171013	-53.267578	-41.682110
951.953186	-36.785702	-43.332615	-30.093801
952.327515	15.339371	8.798252	-75.632599
952.701843	-4.512402	-1.127899	-10.233412
953.076172	-54.171013	-58.235626	-31.749115
953.450195	30.223766	-20.985216	16.236610
953.824341	30.223766	-45.816231	-48.305088
954.198486	45.104565	23.684288	-42.509857
954.572449	-44.235897	16.241737	-63.209232
954.946350	-59.139137	-35.882538	-45.821503
955.320251	-69.076790	-53.267578	-20.990211
955.694092	22.782036	1.353829	-9.406120
956.067871	-44.235897	-63.204231	7.138903
956.441589	-11.958504	-13.537971	-46.649307
956.815125	-36.785702	6.316836	-40.854374
957.188721	-49.203175	-75.627327	-17.680372
957.562256	-36.785702	-60.719875	-6.096528
957.935730	-41.752350	-50.783649	-7.751436
958.309021	-46.719551	11.279428	1.348700
958.682373	-21.888016	-28.433403	-20.162767
959.055664	-54.171013	-38.365837	-11.888301
959.428955	-76.531113	-50.783649	-14.370586
959.802063	-31.819342	-6.091668	-75.632599
960.175110	27.743382	31.125904	-59.068878
960.548157	0.451235	-38.365837	-4.442072
960.921143	-49.203175	-30.916388	-23.473015
961.294128	-41.752350	-63.204231	-29.266230
961.666809	-86.471733	-20.985216	-19.335337
962.039612	-9.476320	-18.502651	-41.682243
962.412415	-19.405548	-102.967690	-56.584698
962.785095	-6.994241	-6.091668	-3.614726
963.157715	5.414319	-120.372818	-54.100761
963.530151	-44.235897	-23.467751	-23.473015
963.902649	-11.958504	-45.816231	-47.477123
964.275146	-4.512402	1.353829	-40.854374
964.647522	-26.853537	38.566589	-60.725010
965.019714	-54.171013	-40.849106	-3.614861
965.392029	15.339371	-105.453857	-2.787527
965.764160	-26.853537	-11.055720	12.101291
966.136292	-81.501144	-28.433403	-73.147713
966.508423	-19.405548	-43.332615	-49.960915
966.880371	52.543499	31.125904	-60.725010
967.252319	-69.076790	1.353829	-1.960204
967.624207	22.782036	-73.142578	-2.787527
967.996094	-79.016136	-43.332615	-45.821503
968.367737	-36.785702	-23.467751	-64.037285
968.739441	12.858231	-11.055720	-29.266230
969.111084	-21.888016	-102.967690	-26.783180
969.482666	-6.994241	31.125904	3.003082
969.854248	-26.853537	-28.433403	-16.025322
970.225586	-9.476320	-11.055720	-63.209232
970.596985	-86.471733	-152.710571	-51.616653
970.968323	-16.923050	-43.332615	-21.817667
971.339661	-51.687042	43.526615	-27.610851
971.710754	-49.203175	-102.967690	-0.305864
972.081909	59.981510	23.684288	-44.993439
972.453064	0.451235	-73.142578	0.521288
972.824097	-16.923050	-88.053215	-49.960781
973.194946	5.414319	-80.597420	-17.680372
973.565918	-21.888016	6.316836	-35.060017
973.936768	17.820408	-122.859734	-18.507780
974.307556	-21.888016	-48.299953	7.966086
974.678284	-71.561501	-13.537971	-3.614861
975.048828	-16.923050	11.279428	-5.269294
975.419495	-31.819342	-23.467751	-88.886757
975.790039	-49.203175	-88.053215	-12.715628
976.160522	-21.888016	-63.204231	-32.576721
976.530884	-29.336452	-58.235626	-39.198669
976.901245	-34.302467	1.353829	-56.584698
977.271606	25.262760	-18.502651	-40.854374
977.641846	15.339371	26.164974	-50.788780
978.012024	50.063911	-43.332615	-48.304955
978.382019	50.063911	-18.502651	-69.834785
978.752136	15.339371	-20.985216	-19.335337
979.122131	-51.687042	33.606281	-64.865616
979.492065	-34.302467	-25.950525	-54.928684
979.861877	-16.923050	-65.688690	12.928539
980.231689	-29.336452	-68.173126	-29.266230
980.601440	-2.030531	-11.055720	-1.133029
980.971191	-19.405548	-65.688690	-49.960915
981.340820	-36.785702	-102.967690	-36.715469
981.710266	-16.923050	-38.365837	-56.584698
982.079773	-74.046181	-68.173126	-69.834785
982.449280	-44.235897	-85.567802	-16.852976
982.818604	35.184490	-33.399342	-32.576721
983.187866	-71.561501	16.241737	-40.026382
983.557129	7.895772	-3.609731	-40.026382
983.926331	2.932896	-90.538742	-73.975906
984.295471	-74.046181	-90.538742	-106.287643
984.664612	-34.302467	16.241737	-14.370452
985.033569	-31.819342	13.760635	-38.370968
985.402527	-81.501144	-55.751617	-93.857986
985.771362	27.743382	-38.365837	-29.266230
986.140259	-71.561501	-13.537971	7.965951
986.508911	-16.923050	-16.020191	-51.616653
986.877625	-59.139137	-102.967690	-60.725010
987.246277	-93.928284	-53.267578	-92.201042
987.614929	-16.923050	-38.365837	-16.025322
987.983459	-14.440658	-88.053215	-17.680372
988.351807	-6.994241	-85.567802	-16.025322
988.720215	-46.719551	-93.024239	-44.993439
989.088623	-79.016136	-65.688690	-54.100761
989.456909	-21.888016	-55.751617	-53.272713
989.825012	-121.277298	-60.719875	-61.553162
990.193115	-64.107819	-90.538742	0.521558
990.561279	-91.442619	-63.204231	-49.960781
990.929321	-91.442619	-3.609731	-29.266230
991.297302	-96.414070	-53.267578	-40.026382
991.665100	25.262760	-23.467751	-46.649307
992.033020	-34.302467	-28.433403	-38.370834
992.400818	32.704178	21.203497	-54.100761
992.768494	5.414319	-25.950525	5.484501
993.136047	-19.405548	-20.985216	-16.025322
993.503723	-14.440658	-1.127899	21.198505
993.871277	-6.994241	-28.433403	-26.783316
994.238770	17.820408	-93.024239	-10.233412
994.606140	-2.030531	-23.467751	-13.542966
994.973450	-39.268906	-53.267578	-0.305864
995.340759	0.451235	-63.204231	-31.749115
995.708008	12.858231	-43.332615	17.063532
996.075195	15.339371	-85.567802	-88.058350
996.442200	12.858231	-55.751617	-38.370968
996.809265	-11.958504	-28.433403	-68.178261
997.176270	-4.512402	-33.399342	-65.693832
997.543152	20.301340	-53.267578	-19.335337
997.910095	-21.888016	-38.365837	-45.821232
998.276733	-46.719551	50.965752	-77.289207
998.643494	17.820408	-48.299953	-36.715469
999.010193	-41.752350	-3.609731	-23.473015
999.376831	-21.888016	-33.399342	3.830189
999.743286	-26.853537	33.606281	-28.438400
1000.109802	-51.687042	-43.332615	-9.405985
1000.476257	-4.512402	-70.657799	-25.955654
1000.842651	12.858231	21.203497	-20.990345
1001.208923	-69.076790	-11.055720	15.409542
1001.575134	-49.203175	-16.020191	-31.749115
1001.941284	-76.531113	23.684288	-20.990345
1002.307434	-54.171013	-6.091668	-22.645538
1002.673523	-64.107819	-55.751617	-69.006653
1003.039429	5.414319	31.125904	-31.749115
1003.405334	35.184490	-8.573575	-13.543101
1003.771179	-79.016136	-80.597420	-29.266230
1004.137024	-14.440658	-35.882538	-62.381187
1004.502808	-31.819342	-130.320984	-69.834785
1004.868408	57.502232	-20.985216	-35.060017
1005.234009	-54.171013	-38.365837	-29.266230
1005.599609	-9.476320	11.279428	-14.370452
1005.965149	35.184490	-11.055720	-47.477123
1006.330444	59.981510	-60.719875	-42.509991
1006.695862	-6.994241	-58.235626	-53.272846
1007.061218	-11.958504	-58.235626	-33.404472
1007.426453	-19.405548	8.798252	-13.542966
1007.791626	-36.785702	-110.426376	-3.614861
1008.156677	2.932896	-40.849106	-22.645538
1008.521729	20.301340	-53.267578	6.311843
1008.886780	-46.719551	-23.467751	-46.649307
1009.251709	-106.358101	16.241737	-52.444813
1009.616577	-51.687042	-1.127899	12.101291
1009.981384	-24.370724	-112.912849	-8.578705
1010.346130	-69.076790	-28.433403	-87.229958
1010.710754	-81.501144	-25.950525	-30.093937
1011.075439	-34.302467	-25.950525	-39.198669
1011.439941	-64.107819	-38.365837	-50.788780
1011.804443	7.895772	-85.567802	-41.682110
1012.168884	-34.302467	-25.950525	-12.715628
1012.533325	-71.561501	-93.024239	-62.381187
1012.897522	-49.203175	21.203497	-49.960915
1013.261780	22.782036	-16.020191	-25.955654
1013.626038	-9.476320	1.353829	-18.507780
1013.990112	5.414319	11.279428	-44.165520
1014.354187	5.414319	-60.719875	-36.715336
1014.718140	-41.752350	-55.751617	21.198505
1015.082153	-59.139137	-25.950525	-38.370834
1015.446045	-31.819342	-65.688690	-1.133029
1015.809937	-76.531113	-70.657799	-37.543144
1016.173523	-44.235897	-8.573575	-58.240894
1016.537170	-61.623425	11.279428	-0.305864
1016.900879	5.414319	-45.816231	-45.821232
1017.264404	-106.358101	-45.816231	-16.852707
1017.627991	-64.107819	-1.127899	-47.477261
1017.991333	-11.958504	8.798252	-59.068878
1018.354675	37.664696	-25.950525	-35.887669
1018.718018	-71.561501	36.086555	-8.578705
1019.081299	-39.268906	11.279428	-30.093801
1019.444397	-41.752350	16.241737	-29.266230
1019.807495	-71.561501	-16.020191	-37.543144
1020.170593	-11.958504	-25.950525	10.447297
1020.533691	-46.719551	-6.091668	-45.821503
1020.896606	37.664696	-68.173126	-54.100761
1021.259460	-81.501144	16.241737	-9.405985
1021.622253	-4.512402	-80.597420	-23.473015
1021.985046	22.782036	-50.783649	-45.821503
1022.347778	-69.076790	-25.950525	-22.645538
1022.710327	-9.476320	-55.751617	-25.955654
1023.072876	-41.752350	-18.502651	-41.682243
1023.435364	2.932896	-80.597420	-12.715628
1023.797852	-61.623425	-53.267578	-43.337749
1024.160278	-29.336452	-60.719875	-27.610851
1024.522461	-66.592186	-75.627327	12.928539
1024.884766	-79.016136	-53.267578	-40.854374
1025.246948	-74.046181	-65.688690	-10.233412
1025.609131	15.339371	-35.882538	22.852198
1025.971069	-29.336452	-58.235626	7.138903
1026.333130	-21.888016	-68.173126	-30.093801
1026.694946	-46.719551	-11.055720	-40.854374
1027.056885	17.820408	-55.751617	-40.026382
1027.418823	10.377120	-23.467751	-49.960781
1027.780396	-56.654953	-13.537971	-10.233412
1028.142090	-49.203175	-6.091668	5.484501
1028.503784	7.895772	-35.882538	-18.507780
1028.865479	-88.957191	-45.816231	-8.578705
1029.226807	-11.958504	-120.372818	-23.473015
1029.588135	-31.819342	13.760635	-25.128143
1029.949707	-2.030531	-75.627327	-59.897007
1030.310913	25.262760	-50.783649	-6.096798
1030.672241	25.262760	-50.783649	-35.887669
1031.033325	-51.687042	-55.751617	7.138903
1031.394531	-24.370724	-65.688690	-24.300507
1031.755493	45.104565	-60.719875	-3.614861
1032.116577	-36.785702	-8.573575	-50.788780
1032.477417	-21.888016	-93.024239	-14.370586
1032.838257	-2.030531	23.684288	-19.335337
1033.199097	-46.719551	-70.657799	-24.300507
1033.559937	104.590317	-30.916388	-42.509991
1033.920654	-14.440658	-55.751617	-49.132927
1034.281128	57.502232	-8.573575	3.003082
1034.641724	35.184490	-33.399342	-35.060017
1035.002197	-14.440658	-70.657799	-50.788780
1035.362671	-54.171013	-40.849106	-20.162767
1035.722900	-36.785702	-43.332615	-54.100624
1036.083252	-59.139137	-70.657799	-60.725010
1036.443481	-24.370724	-80.597420	-28.438400
1036.803711	-16.923050	-11.055720	-49.960915
1037.163940	-36.785702	-33.399342	-7.751436
1037.523804	-44.235897	-58.235626	-40.854374
1037.883789	25.262760	-11.055720	10.447297
1038.243774	-14.440658	-135.295654	-70.662933
1038.603638	59.981510	-43.332615	-48.304955
1038.963257	-44.235897	-40.849106	-37.543144
1039.323120	-14.440658	-65.688690	-36.715469
1039.682861	-41.752350	-73.142578	-52.444813
>>>>>End Processed Spectral Data<<<<<
