Jaz Data File
++++++++++++++++++++++++++++++++++++
Date: Wed Dec 03 23:18:48 2014
User: jaz
Dark Spectrum Present: Yes
Reference Spectrum Present: Yes
Processed Spectrum Present: No
Spectrometers: JAZA2310
Integration Time (usec): 17400 (JAZA2310)
Spectra Averaged: 10 (JAZA2310)
Boxcar Smoothing: 0 (JAZA2310)
Correct for Electrical Dark: Yes (JAZA2310)
Strobe/Lamp Enabled: No (JAZA2310)
Correct for Detector Non-linearity: Yes (JAZA2310)
Correct for Stray Light: No (JAZA2310)
Number of Pixels in Processed Spectrum: 2048
>>>>>Begin Processed Spectral Data<<<<<
W	D	R	S
188.301102	0.000000	0.000000	0.000000
188.764923	0.000000	0.000000	0.000000
189.228699	-43.163361	47.584492	-50.588028
189.692459	-97.826401	-11.958234	-60.772572
190.156158	-55.582325	-21.887882	3.782679
190.619812	-23.298689	-83.986115	-16.321278
191.083435	6.485948	17.820677	-14.831790
191.547043	-20.816027	-29.336184	5.767931
192.010590	-43.163361	-24.370455	8.249234
192.474091	-28.264193	55.023121	-2.421311
192.937561	-3.440592	12.858500	15.940681
193.401001	23.853350	-6.993971	2.045309
193.864410	73.446510	-2.030261	22.887278
194.327759	70.967796	-4.512131	24.127787
194.791077	11.448524	-76.530838	2.293662
195.254349	-15.851151	20.301476	15.940815
195.717575	31.294945	25.263029	14.204073
196.180786	73.446510	40.144936	15.940815
196.643951	16.410820	32.704449	7.008529
197.107071	68.489105	40.144936	-8.874488
197.570145	38.735607	25.263029	2.293662
198.033203	-82.913254	20.301476	-6.640554
198.496216	16.410820	-46.719280	-21.037741
198.959167	13.929725	-29.336184	-26.996546
199.422089	-58.066463	-39.268768	-13.838775
199.884979	-55.582325	52.543770	5.767931
200.347855	-50.614506	124.405998	37.025837
200.810654	-60.550571	94.680359	40.250011
201.273422	-45.646973	30.224035	51.161171
201.736160	38.735607	25.263029	61.822090
202.198853	-40.679996	55.023121	9.986287
202.661514	6.485948	42.624935	32.065399
203.124130	-80.428055	17.820677	43.225967
203.586700	8.967220	32.704449	20.406588
204.049240	-40.679996	40.144936	7.504922
204.511734	-5.922522	27.743517	26.112356
204.974197	41.215668	-51.686771	12.963626
205.436615	-30.747169	42.624935	25.120148
205.899002	-38.196598	27.743517	50.417126
206.361343	-70.488464	25.263029	2.293662
206.823654	-68.003799	-31.819208	-10.611961
207.285919	13.929725	-4.512131	31.569347
207.748123	-140.101349	124.405998	20.406588
208.210327	6.485948	45.104698	13.211663
208.672485	-85.398422	50.064182	-3.414270
209.134583	-10.886559	77.333580	19.166271
209.596649	-80.428055	-11.958234	14.452105
210.058670	23.853350	17.820677	5.519728
210.520676	-58.066463	59.981781	18.173811
210.982635	-137.613678	126.882523	20.158445
211.444534	-65.519371	30.224035	-2.173209
211.906403	-18.333467	62.460823	7.008664
212.368240	-95.340569	7.896042	16.933178
212.830048	-0.958767	72.376366	7.752982
213.291779	-28.264193	55.023121	5.767931
213.753494	63.531151	-2.030261	20.406588
214.215179	-33.230251	35.184757	16.437269
214.676819	-87.883835	10.377255	17.677643
215.138412	-82.913254	-6.993971	32.065399
215.599960	-35.713303	35.184757	15.196600
216.061493	-60.550571	5.414588	9.986017
216.522949	-58.066463	0.451505	18.918125
216.984406	-127.664253	67.418861	12.467414
217.445801	-20.816027	30.224035	20.158445
217.907166	-23.298689	55.023121	12.715588
218.368484	-30.747169	37.664833	30.081030
218.829773	21.372566	17.820677	20.406723
219.291031	-82.913254	52.543770	29.337126
219.752228	-55.582325	-2.030261	6.512401
220.213379	-55.582325	50.064182	27.600506
220.674500	-53.098297	99.635612	8.497426
221.135574	6.485948	45.104698	17.429489
221.596634	-90.369354	12.858500	13.459834
222.057648	-77.942963	-39.268768	46.697708
222.518600	-100.312347	-64.107552	17.429489
222.979553	-25.781321	5.414588	1.549274
223.440430	-40.679996	64.939888	11.475110
223.901276	-65.519371	109.545013	19.166271
224.362076	21.372566	47.584492	21.399012
224.822845	-35.713303	27.743517	18.173811
225.283569	-55.582325	87.246529	7.008664
225.744278	-85.398422	45.104698	8.745482
226.204910	-38.196598	104.590446	28.840916
226.665512	-13.368803	17.820677	13.956039
227.126114	-55.582325	74.855026	23.383404
227.586639	-45.646973	17.820677	11.971061
228.047119	-15.851151	59.981781	26.856436
228.507568	-107.770691	173.916428	11.226796
228.967972	-92.854973	109.545013	19.910439
229.428345	-33.230251	-2.030261	14.204343
229.888687	-38.196598	20.301476	15.940815
230.348984	-70.488464	-2.030261	16.685291
230.809219	-85.398422	27.743517	-2.421582
231.269440	-23.298689	42.624935	22.143150
231.729614	-50.614506	-16.922781	-3.662377
232.189758	-60.550571	32.704449	-1.180542
232.649841	-92.854973	-16.922781	-2.173209
233.109894	-55.582325	82.290253	-8.378096
233.569901	-82.913254	69.897728	5.271658
234.029892	-80.428055	-44.235626	23.383675
234.489822	-72.973236	-6.993971	21.151009
234.949707	31.294945	0.451505	3.286119
235.409561	-82.913254	20.301476	9.490049
235.869385	-72.973236	-4.512131	-2.173209
236.329163	-80.428055	45.104698	22.887278
236.788895	18.891678	-11.958234	48.681526
237.248581	-18.333467	97.157967	10.978616
237.708237	-28.264193	2.933031	16.188974
238.167847	13.929725	74.855026	3.534467
238.627441	68.489105	25.263029	3.286389
239.086960	-10.886559	55.023121	3.534467
239.546463	-38.196598	47.584492	26.856436
240.005920	-58.066463	42.624935	12.219374
240.465332	-38.196598	50.064182	20.406588
240.924698	-43.163361	84.768509	14.452374
241.384033	6.485948	-34.302200	21.647013
241.843338	-5.922522	52.543770	-0.436120
242.302597	-30.747169	62.460823	31.073292
242.761810	-80.428055	-56.654819	22.143419
243.220993	-85.398422	84.768509	12.963626
243.680115	-35.713303	97.157967	14.204343
244.139221	-0.958767	32.704449	11.226796
244.598282	-132.638809	87.246529	28.344835
245.057297	46.175343	69.897728	35.041630
245.516266	-43.163361	0.451505	27.848618
245.975189	-58.066463	22.782305	11.226931
246.434082	-58.066463	0.451505	17.181469
246.892944	-63.034920	79.811905	0.308292
247.351761	-65.519371	52.543770	-8.626494
247.810516	-25.781321	-46.719280	-8.874488
248.269272	-5.922522	-9.476050	18.421827
248.727951	-80.428055	37.664833	21.398741
249.186600	-115.229988	12.858500	8.001176
249.645218	-15.851151	107.067780	-5.151581
250.103790	-53.098297	104.590446	25.368269
250.562317	-3.440592	50.064182	33.305447
251.020813	-95.340569	59.981781	35.785870
251.479279	-63.034920	-19.405279	20.902735
251.937668	-30.747169	42.624935	33.057629
252.396057	-48.130684	-6.993971	11.971061
252.854385	-20.816027	35.184757	32.065399
253.312683	-90.369354	35.184757	31.321253
253.770920	1.522819	25.263029	39.009975
254.229126	36.255444	74.855026	34.793819
254.687302	-25.781321	12.858500	32.561584
255.145432	-13.368803	79.811905	20.654594
255.603500	-23.298689	64.939888	11.474840
256.061584	-10.886559	109.545013	25.864239
256.519592	-77.942963	55.023121	7.752982
256.977570	-3.440592	25.263029	29.584959
257.435455	-33.230251	52.543770	24.127787
257.893372	-23.298689	82.290253	9.241861
258.351196	-63.034920	37.664833	12.715588
258.808990	-60.550571	-6.993971	12.467414
259.266754	-95.340569	32.704449	20.406588
259.724487	-82.913254	15.339641	16.933449
260.182190	-23.298689	94.680359	0.556383
260.639832	-68.003799	141.739258	15.940815
261.097443	-107.770691	45.104698	24.872160
261.554993	-75.458122	35.184757	21.647013
262.012512	4.004435	50.064182	16.188974
262.469971	-53.098297	20.301476	10.730569
262.927429	-10.886559	17.820677	0.060201
263.384827	-65.519371	47.584492	11.226796
263.842194	-82.913254	2.933031	12.963626
264.299530	8.967220	17.820677	5.519728
264.756805	-55.582325	119.452789	22.639280
265.214050	-117.716675	47.584492	32.809540
265.671234	-100.312347	42.624935	3.782814
266.128387	-48.130684	62.460823	3.038040
266.585510	-80.428055	0.451505	22.143150
267.042572	-53.098297	107.067780	17.925526
267.499573	-127.664253	55.023121	15.692789
267.956604	-20.816027	45.104698	17.429489
268.413574	-68.003799	-24.370455	3.534737
268.870483	-120.203339	40.144936	6.760330
269.327362	-80.428055	50.064182	53.144569
269.784180	6.485948	-74.046051	41.986130
270.240936	6.485948	45.104698	3.038310
270.697693	48.655090	7.896042	1.301053
271.154419	-55.582325	17.820677	20.902735
271.611053	-100.312347	-64.107552	34.297653
272.067688	-10.886559	57.502499	16.933449
272.524292	-85.398422	-11.958234	21.647013
272.980835	-53.098297	40.144936	30.328995
273.437347	-75.458122	5.414588	21.398741
273.893799	-60.550571	-14.440523	2.541744
274.350250	-38.196598	59.981781	21.647013
274.806610	-68.003799	37.664833	7.752847
275.262939	75.925133	12.858500	15.940815
275.719238	-72.973236	35.184757	9.986017
276.175507	8.967220	50.064182	-14.087195
276.631714	46.175343	74.855026	-10.115419
277.087891	-65.519371	-44.235626	25.864239
277.544067	-105.284424	42.624935	8.497426
278.000122	-43.163361	-39.268768	20.406723
278.456177	-63.034920	87.246529	28.592808
278.912201	-70.488464	47.584492	37.521976
279.368164	-35.713303	15.339641	37.025837
279.824097	-75.458122	77.333580	20.902735
280.279968	-0.958767	7.896042	28.096861
280.735840	16.410820	-2.030261	5.271658
281.191620	-18.333467	7.896042	3.038310
281.647400	-75.458122	82.290253	-11.108373
282.103149	-38.196598	17.820677	-0.684350
282.558838	-60.550571	22.782305	39.505833
283.014465	-28.264193	-54.170746	42.730007
283.470062	-10.886559	22.782305	12.219104
283.925629	-8.404421	69.897728	34.297653
284.381134	-8.404421	67.418861	-0.436120
284.836639	-95.340569	27.743517	18.421827
285.292053	-38.196598	17.820677	46.201641
285.747467	-25.781321	-51.686771	29.088751
286.202820	-38.196598	-2.030261	14.452374
286.658142	-53.098297	92.202522	14.204343
287.113434	-60.550571	25.263029	28.592672
287.568634	-45.646973	-14.440523	22.391283
288.023804	-72.973236	32.704449	38.513981
288.478973	-45.646973	82.290253	10.730569
288.934113	-25.781321	47.584492	29.584959
289.389130	-63.034920	7.896042	20.654594
289.844208	-45.646973	25.263029	31.073292
290.299164	13.929725	17.820677	24.376047
290.754089	-13.368803	131.835129	23.879795
291.208984	-28.264193	77.333580	15.444493
291.663879	-8.404421	74.855026	7.008664
292.118683	28.814472	52.543770	29.584959
292.573456	-45.646973	102.113144	35.289577
293.028198	-48.130684	10.377255	20.654865
293.482849	-15.851151	0.451505	21.647013
293.937561	-35.713303	37.664833	23.631533
294.392151	-102.798264	5.414588	8.249100
294.846741	-0.958767	12.858500	12.467414
295.301239	-35.713303	0.451505	17.677776
295.755737	-35.713303	89.724571	3.038310
296.210175	-63.034920	183.813721	30.081163
296.664581	-15.851151	37.664833	59.590870
297.118958	-53.098297	7.896042	27.848618
297.573242	-43.163361	124.405998	25.864103
298.027557	-72.973236	15.339641	11.475110
298.481812	-25.781321	84.768509	27.104414
298.935974	-72.973236	89.724571	33.305580
299.390137	8.967220	57.502499	9.986287
299.844238	-50.614506	35.184757	26.608456
300.298340	-30.747169	27.743517	51.657059
300.752350	-40.679996	30.224035	46.945736
301.206360	13.929725	99.635612	23.383675
301.660278	-63.034920	84.768509	20.902870
302.114197	-45.646973	74.855026	10.978616
302.568054	-5.922522	5.414588	46.201641
303.021881	-5.922522	27.743517	53.888580
303.475677	-95.340569	62.460823	60.334530
303.929413	-40.679996	99.635612	33.801620
304.383118	-85.398422	-21.887882	40.994183
304.836761	-40.679996	84.768509	41.985859
305.290375	-53.098297	22.782305	24.127787
305.743958	-100.312347	45.104698	34.793686
306.197510	-38.196598	22.782305	54.384445
306.650970	-58.066463	104.590446	41.985859
307.104431	-40.679996	35.184757	71.985794
307.557800	-30.747169	136.787460	55.376305
308.011169	-85.398422	47.584492	76.942650
308.464508	18.891678	77.333580	50.169243
308.917755	-0.958767	47.584492	18.918125
309.371063	-60.550571	64.939888	49.177433
309.824219	-23.298689	146.690643	52.400822
310.277374	-43.163361	112.022141	58.599079
310.730499	38.735607	77.333580	68.019646
311.183563	6.485948	-34.302200	53.144836
311.636597	-43.163361	109.545013	68.267319
312.089569	-58.066463	7.896042	62.813961
312.542511	-77.942963	124.405998	76.942650
312.995422	-82.913254	149.166260	82.890892
313.448273	-53.098297	55.023121	57.855400
313.901093	-105.284424	151.641769	67.523895
314.353882	-55.582325	104.590446	93.794144
314.806580	-100.312347	146.690643	91.316391
315.259308	-30.747169	228.331711	71.985527
315.711975	-60.550571	69.897728	70.002754
316.164581	-43.163361	166.492447	94.785484
316.617126	-40.679996	57.502499	81.403854
317.069672	-45.646973	102.113144	80.412560
317.522156	-13.368803	87.246529	91.068550
317.974579	-3.440592	114.499039	97.262947
318.427002	-33.230251	151.641769	102.961113
318.879333	8.967220	52.543770	108.411369
319.331665	-40.679996	109.545013	109.402328
319.783936	-28.264193	87.246529	107.668167
320.236176	-18.333467	191.235611	97.510628
320.688354	-45.646973	164.017532	106.677177
321.140503	13.929725	121.929382	130.454208
321.592651	-50.614506	223.386780	123.024918
322.044647	-15.851151	121.929382	132.435135
322.496704	-13.368803	62.460823	133.178162
322.948639	33.775314	191.235611	125.006210
323.400604	-30.747169	84.768509	136.149506
323.852509	-97.826401	92.202522	141.101364
324.304352	-15.851151	186.287827	117.824127
324.756165	-80.428055	243.163864	157.439697
325.207916	21.372566	164.017532	136.397049
325.659668	-65.519371	188.761841	152.984222
326.111328	-53.098297	186.287827	170.309204
326.562988	-33.230251	191.235611	165.112320
327.014557	-77.942963	201.130096	161.152542
327.466156	-85.398422	124.405998	168.329651
327.917664	18.891678	146.690643	174.268646
328.369110	-65.519371	151.641769	182.186646
328.820557	-8.404421	186.287827	193.072189
329.271942	-58.066463	102.113144	176.495911
329.723297	-65.519371	154.117188	187.382202
330.174561	-40.679996	203.603500	179.712372
330.625854	-48.130684	223.386780	206.676086
331.077026	4.004435	235.748215	220.030045
331.528229	-3.440592	233.276108	205.192215
331.979370	-95.340569	220.914307	221.266113
332.430450	-38.196598	168.967255	237.336243
332.881500	-105.284424	260.463562	242.032684
333.332489	-53.098297	228.331711	254.637589
333.783478	-117.716675	196.183121	235.853088
334.234406	-75.458122	295.048615	237.336243
334.685303	-100.312347	302.457184	241.043869
335.136078	21.372566	312.333954	256.119995
335.586914	-140.101349	233.276108	256.614624
336.037659	33.775314	337.019012	258.838501
336.488342	-53.098297	228.331711	306.512512
336.939026	-40.679996	297.518280	301.327209
337.389648	-38.196598	329.614532	286.508942
337.840240	-38.196598	208.549881	301.080353
338.290771	-55.582325	282.698944	286.755737
338.741272	-70.488464	309.864868	322.313629
339.191681	-38.196598	233.276108	331.693542
339.642120	-38.196598	255.521347	319.351227
340.092468	93.272324	290.109131	341.565704
340.542816	-55.582325	257.992462	329.966125
340.993103	-20.816027	484.928619	337.123596
341.443329	-10.886559	371.561951	345.267700
341.893555	-18.333467	275.288025	337.617157
342.343689	38.735607	398.689545	349.709106
342.793793	-70.488464	369.095184	383.752014
343.243866	-8.404421	386.360260	374.133148
343.693878	28.814472	366.628448	394.849030
344.143890	-107.770691	415.946594	392.136383
344.593842	-13.368803	314.802917	403.232178
345.043732	1.522819	408.551422	409.641937
345.493591	-92.854973	435.663330	418.269592
345.943359	-43.163361	393.758270	400.026825
346.393158	16.410820	344.422638	405.204468
346.842896	-38.196598	428.270447	423.445618
347.292542	-3.440592	472.615875	458.188080
347.742218	-18.333467	433.199036	462.621643
348.191803	-53.098297	445.519531	432.317749
348.641357	-82.913254	507.085907	470.995972
349.090881	-82.913254	509.547363	484.048035
349.540314	-23.298689	480.003967	464.099884
349.989777	-20.816027	403.620667	486.756561
350.439148	-68.003799	433.199036	466.316742
350.888489	-53.098297	610.387146	499.805176
351.337799	-3.440592	588.264709	518.019897
351.787048	-40.679996	531.696289	488.480103
352.236267	-33.230251	492.315277	515.066406
352.685425	-40.679996	531.696289	534.261108
353.134552	-50.614506	578.430298	553.695496
353.583649	-13.368803	585.806213	545.086121
354.032684	-30.747169	588.264709	546.070068
354.481659	-10.886559	465.226959	596.481384
354.930634	6.485948	605.471619	607.296204
355.379517	-58.066463	568.594116	588.860657
355.828430	-28.264193	551.377625	586.156372
356.277222	-28.264193	595.639771	615.897766
356.726013	-0.958767	659.521667	600.413879
357.174774	-58.066463	585.806213	614.423523
357.623444	-117.716675	637.415527	617.617920
358.072113	-87.883835	661.977478	666.992615
358.520721	43.695488	585.806213	661.344543
358.969299	6.485948	595.639771	639.485107
359.417786	-10.886559	666.888855	677.796082
359.866302	-53.098297	698.803528	675.095642
360.314697	-23.298689	693.894470	687.861755
360.763123	-20.816027	711.074280	733.995972
361.211456	16.410820	659.521667	735.468140
361.659760	-13.368803	676.710266	717.067505
362.108032	6.485948	723.342834	740.128479
362.556244	-50.614506	681.620544	734.486694
363.004456	-8.404421	838.560486	746.996216
363.452576	-25.781321	777.298645	770.292664
363.900696	-63.034920	794.457520	800.443420
364.348663	-23.298689	782.201721	810.735779
364.796722	75.925133	794.457520	814.166199
365.244690	-30.747169	885.083557	829.356201
365.692596	-63.034920	814.062378	844.297974
366.140472	-30.747169	902.215820	834.745300
366.588287	-30.747169	858.152893	891.796021
367.036102	-107.770691	843.459167	875.885193
367.483826	-58.066463	914.450500	917.979492
367.931549	-77.942963	990.258423	899.137756
368.379181	-65.519371	941.359314	917.245422
368.826843	-13.368803	978.036865	876.129639
369.274384	-90.369354	943.805115	943.419739
369.721924	-20.816027	907.109802	948.800049
370.169403	-90.369354	931.575562	982.540466
370.616821	-87.883835	894.873840	992.561829
371.064270	-58.066463	1063.544556	996.960876
371.511566	-50.614506	1002.478210	1010.156555
371.958923	-45.646973	951.141968	1007.224487
372.406158	-40.679996	1019.582031	1038.494751
372.853424	-3.440592	1056.219238	1040.204834
373.300568	-10.886559	1080.633911	1042.891357
373.747711	-8.404421	1151.390137	1072.925659
374.194794	-50.614506	1102.600220	1092.209595
374.641846	-45.646973	1109.920654	1118.319824
375.088898	8.967220	1141.634521	1117.343628
375.535828	-30.747169	1161.144043	1128.322021
375.982758	-28.264193	1117.240479	1121.735474
376.429596	-68.003799	1190.398560	1129.542236
376.876465	-55.582325	1261.049438	1174.900879
377.323242	-87.883835	1292.698730	1164.417480
377.769989	-43.163361	1200.147705	1211.704102
378.216675	11.448524	1314.602173	1191.233032
378.663330	-43.163361	1246.437622	1236.067017
379.109985	-107.770691	1258.614258	1193.670410
379.556519	-53.098297	1363.253540	1299.373657
380.003052	-30.747169	1445.889771	1284.038696
380.449524	-38.196598	1385.136597	1282.578003
380.895996	-20.816027	1428.883667	1321.518433
381.342377	-30.747169	1351.093750	1340.251099
381.788727	-25.781321	1518.730835	1378.188965
382.235046	-60.550571	1513.876831	1378.188965
382.681274	-20.816027	1455.605957	1407.602539
383.127533	-87.883835	1567.253906	1423.398315
383.573669	4.004435	1545.422241	1455.465576
384.019836	-18.333467	1586.654785	1454.251343
384.465912	-60.550571	1557.551514	1466.880615
384.911957	-0.958767	1538.143799	1508.639771
385.357971	-38.196598	1559.977173	1539.944702
385.803925	-28.264193	1620.594727	1544.069214
386.249847	1.522819	1477.462524	1538.003418
386.695679	-38.196598	1608.474731	1587.484741
387.141541	-58.066463	1552.700195	1615.607178
387.587311	-28.264193	1695.696289	1598.638184
388.033051	-75.458122	1775.566162	1632.088013
388.478729	-85.398422	1715.065918	1673.033447
388.924408	-30.747169	1649.674561	1656.318970
389.369995	-28.264193	1698.117676	1692.408936
389.815552	-72.973236	1690.853027	1670.853760
390.261078	-0.958767	1727.169556	1719.283691
390.706543	11.448524	1819.098755	1723.399292
391.152008	-65.519371	1821.516602	1735.017456
391.597351	-117.716675	1790.079468	1710.084351
392.042725	-13.368803	1927.829468	1729.692383
392.487976	6.485948	1939.901855	1770.588135
392.933289	-28.264193	1886.770264	1749.780396
393.378479	-38.196598	1930.244141	1849.901611
393.823639	-18.333467	1992.999878	1826.695923
394.268768	-28.264193	2053.298340	1813.881714
394.713837	16.410820	1949.558594	1867.543091
395.158905	-28.264193	2017.124512	1872.618164
395.603851	-68.003799	2048.476074	1935.658203
396.048798	63.531151	2084.636475	1908.370605
396.493683	-28.264193	2120.781738	1916.823730
396.938568	43.695488	2120.781738	1952.074707
397.383392	-43.163361	2173.767090	1965.591797
397.828156	-72.973236	2306.090576	2046.166992
398.272888	8.967220	2159.319824	2036.280273
398.717560	-18.333467	2202.654785	2059.427979
399.162201	36.255444	2236.345215	2082.810547
399.606781	-100.312347	2411.806641	2116.787842
400.051361	38.735607	2231.532959	2109.318848
400.495819	-68.003799	2301.281982	2155.568848
400.940308	6.485948	2447.817383	2223.213135
401.384705	-68.003799	2368.573975	2193.369385
401.829102	-63.034920	2390.192871	2211.180664
402.273438	-25.781321	2366.171875	2271.566895
402.717682	-45.646973	2560.559326	2271.566895
403.161926	-45.646973	2486.213379	2299.701416
403.606110	-0.958767	2548.572266	2341.525146
404.050293	-43.163361	2433.415039	2367.234619
404.494385	-80.428055	2512.601318	2351.617188
404.938446	-85.398422	2572.544678	2375.162598
405.382477	-23.298689	2637.240479	2355.702148
405.826447	-90.369354	2730.610107	2400.141113
406.270386	21.372566	2713.858398	2445.998779
406.714233	-23.298689	2733.002686	2431.595947
407.158081	-50.614506	2778.455322	2499.270264
407.601868	-68.003799	2902.741211	2552.989502
408.045624	-30.747169	2840.618408	2585.109375
408.489319	-58.066463	2802.369385	2585.589111
408.933014	-53.098297	2962.436035	2624.645752
409.376617	-28.264193	2897.964111	2588.944824
409.820190	61.052021	2888.408691	2616.500244
410.263702	4.004435	2955.274658	2657.220215
410.707184	-23.298689	3093.636230	2711.087158
411.150635	36.255444	3074.563232	2722.814941
411.594025	-5.922522	3117.471680	2741.479004
412.037384	36.255444	3084.100098	2750.330811
412.480682	-55.582325	3196.088135	2776.165283
412.923981	-23.298689	3191.325439	2813.708008
413.367126	-125.177261	3379.285889	2834.027344
413.810333	-50.614506	3284.160156	2881.103760
414.253479	-60.550571	3336.490234	2952.272217
414.696533	8.967220	3257.984619	2916.933350
415.139587	-102.798264	3448.196045	2969.220947
415.582581	-120.203339	3376.908936	2964.208496
416.025543	-23.298689	3445.820801	2995.234619
416.468414	-53.098297	3569.270752	3042.232178
416.911285	-38.196598	3566.898438	3053.203125
417.354065	-43.163361	3490.944824	3064.887939
417.796875	8.967220	3545.542236	3065.842041
418.239594	-43.163361	3675.983643	3148.311523
418.682281	6.485948	3770.747803	3178.803223
419.124908	-97.826401	3763.643555	3228.808594
419.567505	-13.368803	3808.629639	3219.286133
420.010071	-50.614506	3815.731201	3290.446045
420.452545	-102.798264	3957.657959	3294.491211
420.895020	-30.747169	3808.629639	3270.935791
421.337372	63.531151	3915.100098	3388.656250
421.779785	-28.264193	4030.913330	3377.009277
422.222107	31.294945	3941.109375	3421.213135
422.664368	-35.713303	3931.652588	3450.671875
423.106628	-68.003799	3995.473389	3536.386963
423.548798	-92.854973	4217.372070	3497.218994
423.990967	-70.488464	4056.895020	3565.100342
424.433044	-68.003799	4217.372070	3522.620117
424.875092	-58.066463	4125.363281	3549.677002
425.317078	-65.519371	4257.455078	3643.844238
425.759064	-3.440592	4231.520996	3606.851318
426.200989	-102.798264	4356.419434	3669.447266
426.642853	46.175343	4335.220703	3710.682373
427.084686	-18.333467	4344.642578	3644.792969
427.526459	43.695488	4431.762207	3729.873291
427.968201	13.929725	4464.708496	3713.288818
428.409912	-33.230251	4483.531250	3776.294189
428.851563	-23.298689	4608.147949	3862.215332
429.293121	-10.886559	4547.032227	3843.995361
429.734711	36.255444	4608.147949	3880.904541
430.176239	-33.230251	4462.355957	3951.138672
430.617706	-20.816027	4622.246582	3880.667969
431.059113	-35.713303	4873.383789	3923.712646
431.500488	46.175343	4936.668457	3984.230469
431.941833	1.522819	4936.668457	4005.498047
432.383087	-20.816027	4713.846680	4023.926025
432.824341	-68.003799	4854.626465	4085.568115
433.265533	-50.614506	5072.495605	4133.486816
433.706726	-28.264193	4974.153809	4144.578613
434.147827	1.522819	5067.814453	4182.565430
434.588867	-13.368803	5105.257813	4254.254395
435.029877	-38.196598	5147.366699	4356.283691
435.470825	-63.034920	5299.302246	4352.515137
435.911804	-43.163361	5327.330078	4373.475586
436.352661	-90.369354	5467.372070	4460.808594
436.793518	-97.826401	5360.021484	4450.454590
437.234283	-65.519371	5562.972168	4527.614746
437.675049	-97.826401	5651.509766	4535.609863
438.115723	-85.398422	5532.668457	4584.039551
438.556396	-85.398422	5756.272461	4634.799316
438.997040	-23.298689	5781.867676	4674.026367
439.437561	-45.646973	5667.812500	4737.186523
439.878113	48.655090	5795.825684	4829.397949
440.318573	-58.066463	5946.940430	4759.249023
440.759033	-48.130684	5944.617676	4856.132324
441.199341	-65.519371	6130.352051	4957.386719
441.639709	-8.404421	6181.379883	4933.251953
442.079956	-40.679996	5893.490723	4997.206055
442.520264	-48.130684	5998.044922	5045.675781
442.960510	-100.312347	6315.807129	5125.477051
443.400604	-127.664253	6250.929688	5047.782715
443.840759	-60.550571	6357.496094	5159.160156
444.280762	-8.404421	6406.115723	5205.224609
444.720825	-25.781321	6618.893066	5243.324219
445.160767	31.294945	6542.612793	5301.502930
445.600739	18.891678	6676.650879	5362.921387
446.040558	41.215668	6588.848633	5382.298828
446.480438	-68.003799	6637.378418	5344.709473
446.920258	-125.177261	7022.644531	5508.518066
447.359955	21.372566	6882.054199	5447.641113
447.799713	8.967220	7123.956543	5671.870117
448.239319	-63.034920	7080.217773	5560.273926
448.678955	-45.646973	7333.237793	5667.910156
449.118500	-43.163361	7255.084473	5738.452148
449.558014	-75.458122	7264.281250	5715.175293
449.997498	-85.398422	7399.860352	5824.998535
450.436951	-50.614506	7324.045898	5792.900391
450.876343	-117.716675	7436.602539	5888.474609
451.315674	6.485948	7372.296387	5996.052734
451.754974	56.093582	7574.294434	5982.813965
452.194183	-102.798264	7539.885742	6052.011719
452.633392	-85.398422	7734.752441	6094.718262
453.072510	51.134735	7755.368652	6098.663574
453.511688	-70.488464	7858.399902	6086.131836
453.950684	-157.517715	7821.775879	6132.769531
454.389740	-28.264193	7860.688965	6234.802734
454.828735	-45.646973	8004.794922	6294.128418
455.267639	-33.230251	7984.217773	6361.067871
455.706543	-10.886559	7883.572754	6348.099121
456.145325	-53.098297	7913.317383	6430.053223
456.584137	-102.798264	8196.693359	6366.856445
457.022858	-58.066463	7984.217773	6445.326660
457.461578	-80.428055	8267.444336	6520.510254
457.900208	-10.886559	8278.852539	6530.687012
458.338867	-50.614506	8413.391602	6534.155273
458.777405	-55.582325	8344.999023	6629.851074
459.215912	36.255444	8408.833008	6598.423340
459.654388	-85.398422	8365.520508	6750.870605
460.092773	13.929725	8502.250977	6791.261719
460.531189	-65.519371	8686.619141	6802.106934
460.969513	-25.781321	8768.480469	6878.001953
461.407806	-8.404421	8829.844727	6895.525879
461.846008	-85.398422	9056.881836	7077.322266
462.284241	8.967220	9097.708984	7084.228516
462.722351	-35.713303	9131.722656	7139.014160
463.160461	-28.264193	9294.872070	7220.916992
463.598541	-18.333467	9306.195313	7353.325684
464.036530	-45.646973	9417.111328	7557.875977
464.474518	-43.163361	9828.333008	7592.052246
464.912384	-20.816027	10114.596680	7703.461914
465.350281	-95.340569	10179.886719	7769.664551
465.788086	-122.690247	9997.454102	7831.258789
466.225891	-70.488464	10364.344727	7952.985840
466.663605	-43.163361	10714.647461	8138.793945
467.101318	-97.826401	10831.239258	8245.178711
467.539001	-90.369354	10882.781250	8294.006836
467.976563	-87.883835	11249.815430	8613.453125
468.414124	-5.922522	11216.280273	8710.595703
468.851593	-20.816027	11542.403320	8772.667969
469.289063	-23.298689	12054.896484	8986.409180
469.726440	31.294945	12141.649414	9183.956055
470.163849	-43.163361	12039.321289	9270.282227
470.601135	-77.942963	12537.083008	9629.743164
471.038422	-85.398422	12925.059570	9706.541016
471.475677	-0.958767	12840.877930	9743.794922
471.912811	-60.550571	13336.618164	10012.872070
472.350006	-72.973236	13584.062500	10243.217773
472.787048	-72.973236	13818.003906	10346.228516
473.224121	-80.428055	13765.056641	10534.526367
473.661072	-90.369354	13906.225586	10680.420898
474.098053	-58.066463	14465.717773	10929.025391
474.534943	-72.973236	14670.286133	11280.085938
474.971802	-75.458122	14912.067383	11398.502930
475.408630	-77.942963	15493.819336	11638.872070
475.845367	-45.646973	15478.463867	11825.223633
476.282104	-65.519371	15851.208008	12052.097656
476.718750	-18.333467	16015.551758	12174.430664
477.155426	-18.333467	16543.294922	12601.301758
477.591949	-45.646973	16823.402344	12699.112305
478.028503	-40.679996	17011.544922	12875.756836
478.464966	-28.264193	17477.367188	13309.078125
478.901428	-80.428055	17772.523438	13445.881836
479.337860	-23.298689	18061.085938	13675.994141
479.774170	-63.034920	18430.517578	13894.852539
480.210510	8.967220	18834.953125	13974.005859
480.646698	73.446510	19208.847656	14396.710938
481.082947	-55.582325	19333.501953	14596.927734
481.519073	-25.781321	19554.412109	14792.609375
481.955200	-28.264193	20280.960938	15096.888672
482.391266	-80.428055	20491.177734	15351.085938
482.827301	-23.298689	20789.107422	15628.571289
483.263306	-18.333467	21203.404297	15859.846680
483.699188	-65.519371	21383.251953	16025.944336
484.135101	6.485948	22191.199219	16117.948242
484.570923	43.695488	21916.601563	16385.552734
485.006744	-55.582325	22389.011719	16622.398438
485.442413	-60.550571	22800.316406	16768.578125
485.878174	6.485948	23304.546875	17092.130859
486.313782	-0.958767	22941.173828	17409.457031
486.749390	26.333895	23443.369141	17468.710938
487.184998	-65.519371	23632.955078	17682.980469
487.620453	-25.781321	24058.732422	17854.378906
488.055939	-85.398422	23919.701172	17929.361328
488.491333	-58.066463	24442.970703	18088.503906
488.926727	-3.440592	24635.222656	18312.349609
489.362030	-125.177261	24778.914063	18306.228516
489.797302	6.485948	25307.666016	18591.068359
490.232513	-5.922522	25721.802734	18930.806641
490.667755	1.522819	25546.800781	18809.464844
491.102905	-13.368803	25963.363281	19141.152344
491.537964	-48.130684	26513.392578	19230.373047
491.973022	-100.312347	26500.078125	19359.835938
492.407990	-13.368803	26435.732422	19520.384766
492.842957	-110.257050	26899.623047	19758.400391
493.277832	56.093582	27314.976563	20008.736328
493.712738	-68.003799	27163.910156	20101.542969
494.147491	-60.550571	27666.105469	20283.679688
494.582275	-55.582325	27997.371094	20366.445313
495.017029	-18.333467	27879.525391	20517.332031
495.451660	-63.034920	28377.687500	20797.089844
495.886292	-75.458122	28775.927734	20914.554688
496.320831	-100.312347	28513.390625	21021.957031
496.755402	-85.398422	29089.695313	21220.164063
497.189850	-30.747169	29352.312500	21414.496094
497.624298	6.485948	29145.332031	21468.466797
498.058655	-97.826401	29314.476563	21531.218750
498.493042	-85.398422	29688.400391	21655.433594
498.927368	-50.614506	30135.789063	21858.062500
499.361572	-80.428055	30008.919922	21936.900391
499.795807	46.175343	30280.462891	22072.644531
500.229919	-3.440592	30694.417969	22309.091797
500.664063	-10.886559	30233.718750	22325.136719
501.098083	6.485948	30945.869141	22622.201172
501.532104	-65.519371	31326.312500	22691.496094
501.966064	-35.713303	31915.669922	22877.435547
502.399994	21.372566	31691.083984	22827.039063
502.833893	-60.550571	32111.310547	23244.275391
503.267700	-50.614506	32084.634766	23190.748047
503.701477	-13.368803	32629.113281	23438.396484
504.135193	-10.886559	32600.230469	23422.748047
504.568909	-10.886559	33071.109375	23590.054688
505.002502	16.410820	32737.966797	23675.386719
505.436127	-63.034920	33253.167969	23944.068359
505.869629	-35.713303	33108.855469	23944.285156
506.303162	-58.066463	33872.304688	24193.712891
506.736603	-3.440592	34145.105469	24372.595703
507.169983	-18.333467	34083.011719	24666.701172
507.603363	-25.781321	33952.156250	24679.964844
508.036621	-45.646973	34338.007813	24757.560547
508.469940	18.891678	34745.855469	24751.148438
508.903107	1.522819	34781.316406	24945.087891
509.336304	-50.614506	35002.894531	25085.562500
509.769379	-10.886559	34579.632813	25215.236328
510.202484	-85.398422	35350.691406	25503.708984
510.635529	-0.958767	35290.886719	25516.552734
511.068481	11.448524	36057.175781	25857.066406
511.501434	-40.679996	35884.445313	25926.220703
511.934265	-58.066463	36010.675781	26037.500000
512.367126	-5.922522	36566.542969	26311.816406
512.799927	-95.340569	35933.164063	26116.433594
513.232605	36.255444	35758.214844	26102.685547
513.665344	-90.369354	36389.359375	26204.910156
514.097961	-28.264193	37182.433594	26517.482422
514.530579	-40.679996	37191.300781	26765.617188
514.963135	-33.230251	37142.542969	26944.574219
515.395691	-45.646973	37790.027344	27007.419922
515.828064	-40.679996	38434.167969	27296.628906
516.260498	-75.458122	38334.121094	27220.650391
516.692871	-28.264193	38087.496094	27293.517578
517.125183	18.891678	37903.210938	27517.060547
517.557373	-58.066463	38140.804688	27460.169922
517.989624	-115.229988	38716.746094	27718.660156
518.421753	-18.333467	39191.546875	27889.626953
518.853943	4.004435	39062.140625	27906.523438
519.286072	4.004435	39106.750000	28098.203125
519.718018	-20.816027	39699.042969	28206.957031
520.150024	-117.716675	39804.347656	28265.453125
520.581909	-112.743393	39770.734375	28289.474609
521.013855	-60.550571	39734.882813	28445.410156
521.445679	-38.196598	40235.468750	28770.904297
521.877502	-48.130684	40132.031250	28676.119141
522.309204	-33.230251	40197.226563	28745.541016
522.740906	-28.264193	40799.421875	28926.224609
523.172546	-33.230251	40724.792969	28973.402344
523.604187	-13.368803	40681.847656	29259.375000
524.035767	-72.973236	40478.699219	29169.908203
524.467224	-45.646973	40566.679688	28915.767578
524.898682	-38.196598	41244.023438	29169.017578
525.330078	-45.646973	41169.003906	29323.921875
525.761475	-65.519371	41355.562500	29412.501953
526.192749	-40.679996	41941.082031	29494.408203
526.624023	-53.098297	41643.132813	29376.222656
527.055237	-33.230251	41620.269531	29535.585938
527.486389	-75.458122	42164.296875	29601.242188
527.917542	4.004435	42346.695313	29779.753906
528.348572	-23.298689	42058.343750	29589.669922
528.779663	31.294945	41849.265625	29913.302734
529.210571	-63.034920	42099.781250	29933.335938
529.641541	-63.034920	42157.382813	29699.402344
530.072388	-50.614506	42314.328125	29971.396484
530.503235	46.175343	42918.468750	29968.949219
530.934082	-80.428055	42474.015625	30134.992188
531.364746	-35.713303	42580.726563	30068.222656
531.795532	-122.690247	43051.843750	30240.935547
532.226135	-53.098297	42606.273438	30416.990234
532.656738	-50.614506	43157.390625	30291.685547
533.087280	-112.743393	43101.070313	30473.517578
533.517822	-23.298689	43329.109375	30798.652344
533.948242	-155.029297	43624.617188	30717.433594
534.378662	-110.257050	44137.613281	30750.140625
534.809082	-18.333467	44640.167969	30690.281250
535.239319	-65.519371	44123.207031	30494.443359
535.669617	-40.679996	44598.843750	30972.662109
536.099792	-23.298689	44180.847656	31058.771484
536.529968	-23.298689	44404.992188	31093.259766
536.960083	-10.886559	44574.558594	30924.603516
537.390137	-70.488464	44928.277344	31095.707031
537.820190	-13.368803	44779.054688	31109.056641
538.250183	-18.333467	44446.105469	31378.464844
538.680115	-50.614506	45474.281250	31321.291016
539.109985	-20.816027	45194.019531	31565.968750
539.539795	6.485948	44908.675781	31641.140625
539.969543	-115.229988	45275.628906	31580.201172
540.399292	-82.913254	45928.218750	31682.060547
540.828979	8.967220	45676.632813	31883.751953
541.258606	-63.034920	45639.066406	31718.978516
541.688171	23.853350	45832.382813	31882.193359
542.117737	-45.646973	46227.703125	31765.009766
542.547302	-43.163361	46594.648438	31964.457031
542.976685	-8.404421	46543.050781	32329.902344
543.406128	1.522819	46906.152344	32278.333984
543.835388	-68.003799	46473.542969	32353.236328
544.264771	-53.098297	47521.019531	32582.332031
544.693970	-45.646973	46558.519531	32515.003906
545.123230	-30.747169	47057.949219	32636.533203
545.552307	-18.333467	47754.210938	32804.699219
545.981506	-45.646973	47223.753906	32741.837891
546.410583	-70.488464	46987.183594	32926.195313
546.839539	11.448524	47321.601563	33080.976563
547.268555	-15.851151	46995.035156	32957.062500
547.697449	-0.958767	47465.039063	33146.921875
548.126282	-38.196598	47529.027344	33074.535156
548.555054	-53.098297	47824.292969	33074.980469
548.983887	-25.781321	48111.980469	32902.878906
549.412598	-23.298689	47767.667969	33414.863281
549.841309	-50.614506	48166.621094	33388.890625
550.269958	-15.851151	48163.882813	33403.320313
550.698486	6.485948	48602.417969	33613.484375
551.127075	43.695488	48949.804688	33632.343750
551.555481	-0.958767	48907.519531	33631.910156
551.983948	-8.404421	48658.121094	33514.074219
552.412292	-95.340569	49595.863281	33696.914063
552.840698	33.775314	49474.488281	33665.851563
553.268860	8.967220	49758.660156	34084.437500
553.697205	-63.034920	49735.335938	34133.000000
554.125366	-38.196598	49590.074219	34365.371094
554.553467	-38.196598	49811.226563	34326.351563
554.981628	-38.196598	49712.035156	34529.414063
555.409607	-30.747169	50209.218750	34784.066406
555.837646	11.448524	50753.671875	35007.195313
556.265564	-53.098297	50835.996094	35170.253906
556.693481	-40.679996	51433.195313	35277.027344
557.121338	-40.679996	51417.527344	35478.808594
557.549133	-97.826401	52217.812500	35607.707031
557.976929	-120.203339	52312.125000	35834.933594
558.404602	-53.098297	52230.800781	35814.781250
558.832275	-58.066463	52302.347656	36039.113281
559.259888	33.775314	52843.023438	36130.351563
559.687439	-75.458122	53400.402344	36368.195313
560.114929	-35.713303	53842.507813	36363.988281
560.542419	-48.130684	53971.929688	36831.558594
560.969788	-18.333467	53441.488281	36932.359375
561.397156	11.448524	53315.058594	36840.414063
561.824524	8.967220	54760.804688	36971.792969
562.251770	-18.333467	54587.113281	37090.558594
562.679016	-23.298689	54670.175781	37216.214844
563.106140	-122.690247	54504.355469	37067.953125
563.533264	-20.816027	54332.617188	37074.386719
563.960327	-15.851151	53947.382813	36900.453125
564.387329	-23.298689	54343.308594	37019.429688
564.814331	-30.747169	54318.363281	37145.074219
565.241272	-60.550571	53901.875000	36875.195313
565.668213	-63.034920	53975.441406	37010.128906
566.094971	-75.458122	53620.367188	36974.898438
566.521790	33.775314	53800.683594	36727.664063
566.948425	-25.781321	53964.914063	37014.554688
567.375183	-5.922522	54165.703125	36898.019531
567.801819	13.929725	53776.328125	36832.214844
568.228394	-65.519371	53369.644531	36809.843750
568.654846	-55.582325	53658.390625	36429.984375
569.081421	-30.747169	53679.164063	36474.062500
569.507874	-48.130684	53414.089844	36354.023438
569.934265	-0.958767	53414.089844	36101.562500
570.360596	53.614147	53185.953125	36411.609375
570.786865	-55.582325	52826.339844	36082.074219
571.213074	-112.743393	53010.468750	36188.371094
571.639282	58.572922	53627.281250	36273.414063
572.065430	-38.196598	53223.250000	36119.945313
572.491516	-45.646973	52849.695313	35825.632813
572.917603	-33.230251	53503.250000	36062.804688
573.343567	-3.440592	53393.566406	36135.000000
573.769531	-8.404421	53108.164063	35896.277344
574.195435	-102.798264	53270.808594	36141.203125
574.621277	-72.973236	53253.808594	36010.105469
575.047119	-58.066463	53482.640625	35967.136719
575.472839	18.891678	52950.042969	35949.425781
575.898560	-63.034920	52849.695313	35914.433594
576.324158	-50.614506	53277.613281	35830.945313
576.749817	-43.163361	53000.390625	35714.679688
577.175293	-53.098297	52736.500000	35664.191406
577.600830	-25.781321	52059.343750	35620.558594
578.026306	-115.229988	52843.023438	35543.476563
578.451721	-5.922522	52452.695313	35654.882813
578.877136	1.522819	52903.160156	35691.648438
579.302429	-58.066463	52663.558594	35761.410156
579.727661	-15.851151	53057.582031	35847.554688
580.152832	-13.368803	53328.691406	35770.710938
580.578064	-72.973236	52849.695313	35924.621094
581.003113	-15.851151	53199.507813	35997.039063
581.428223	-132.638809	52826.339844	35792.195313
581.853271	6.485948	53179.175781	35803.707031
582.278198	-25.781321	53267.406250	35786.875000
582.703125	-68.003799	53332.101563	35702.058594
583.127930	-25.781321	52726.535156	35598.851563
583.552795	16.410820	53270.808594	35587.562500
583.977539	-23.298689	52627.175781	35388.000000
584.402283	-25.781321	53706.878906	35772.257813
584.826965	-60.550571	53091.292969	35765.839844
585.251587	-35.713303	53318.468750	35832.281250
585.676208	-38.196598	53376.472656	35931.261719
586.100647	-65.519371	53870.421875	36023.171875
586.525208	-45.646973	54194.023438	36138.992188
586.949524	-97.826401	53880.906250	36184.828125
587.373962	-43.163361	53898.382813	36029.367188
587.798218	-72.973236	53734.636719	36268.539063
588.222534	-107.770691	53887.894531	36057.714844
588.646729	-43.163361	53873.917969	36138.542969
589.070984	-33.230251	53866.933594	36169.550781
589.495117	-38.196598	54109.160156	36264.109375
589.919128	-53.098297	54529.511719	36263.664063
590.343201	-77.942963	54021.097656	36140.093750
590.767151	-40.679996	54017.578125	36074.324219
591.191101	-20.816027	53376.472656	36098.015625
591.614990	-23.298689	53772.855469	36089.828125
592.038818	-92.854973	53651.472656	35986.191406
592.462524	-15.851151	53818.101563	36051.515625
592.886292	-65.519371	53693.019531	36303.527344
593.310059	-63.034920	53950.894531	36192.796875
593.733582	-0.958767	55145.433594	36143.417969
594.157227	8.967220	54436.222656	36105.550781
594.580750	-53.098297	53786.765625	36209.410156
595.004272	-53.098297	54468.468750	36214.941406
595.427673	-80.428055	53699.945313	36171.097656
595.851074	-50.614506	54264.988281	36173.753906
596.274353	-72.973236	54735.390625	36308.843750
596.697632	-77.942963	54429.058594	36171.093750
597.120911	-23.298689	54261.441406	36113.523438
597.544067	-105.284424	53901.875000	36195.683594
597.967224	-43.163361	54254.335938	36412.929688
598.390320	-33.230251	54457.714844	36298.656250
598.813354	-10.886559	54063.328125	36209.406250
599.236328	-53.098297	54204.656250	36242.183594
599.659241	-75.458122	54561.894531	36198.777344
600.082153	-50.614506	54522.320313	36225.128906
600.505005	-110.257050	54601.535156	36276.957031
600.927795	-43.163361	54826.281250	36262.562500
601.350525	-23.298689	54913.875000	36416.250000
601.773254	-72.973236	54133.882813	36231.109375
602.195862	-40.679996	54507.949219	36274.957031
602.618408	4.004435	54339.742188	36234.875000
603.040955	11.448524	54652.089844	36332.761719
603.463440	-77.942963	55101.144531	36183.718750
603.885925	-125.177261	55226.847656	36481.808594
604.308350	-8.404421	55138.046875	36511.265625
604.730652	-45.646973	55112.207031	36476.492188
605.152893	-63.034920	54789.882813	36517.242188
605.575195	-112.743393	54943.148438	36596.535156
605.997375	-107.770691	55075.347656	36463.867188
606.419495	-50.614506	55064.304688	36400.968750
606.841553	-28.264193	54786.238281	36488.671875
607.263672	6.485948	55308.554688	36507.281250
607.685608	-10.886559	55854.476563	36430.648438
608.107605	-5.922522	55319.718750	36580.140625
608.529480	-28.264193	55416.707031	36913.085938
608.951294	-13.368803	55911.703125	36716.808594
609.373108	-97.826401	55862.093750	37003.035156
609.794800	-55.582325	55585.542969	37031.832031
610.216553	-43.163361	56234.769531	37004.808594
610.638123	-23.298689	56527.066406	37220.648438
611.059753	-5.922522	56676.570313	37501.312500
611.481262	58.572922	57320.734375	37673.863281
611.902832	-45.646973	57418.277344	37484.011719
612.324219	-23.298689	57159.054688	37807.425781
612.745605	-100.312347	57676.230469	37669.648438
613.166931	-77.942963	57438.648438	37598.671875
613.588196	-87.883835	57561.238281	37937.269531
614.009460	-28.264193	57066.578125	37634.824219
614.430664	-30.747169	58062.148438	37949.257813
614.851807	-125.177261	57540.769531	37938.382813
615.272827	-58.066463	57936.988281	38043.843750
615.693909	-80.428055	57663.882813	38006.765625
616.114929	21.372566	57766.964844	38241.320313
616.535889	-82.913254	57750.445313	38323.105469
616.956787	-45.646973	57536.667969	38248.652344
617.377563	-18.333467	57066.578125	38099.363281
617.798340	-55.582325	57557.144531	38232.652344
618.219055	-48.130684	57795.910156	38040.511719
618.639832	-20.816027	57373.519531	38073.160156
619.060364	4.004435	57816.605469	37936.164063
619.481018	-80.428055	57369.453125	37813.195313
619.901611	41.215668	56966.472656	37641.699219
620.322083	-15.851151	57320.734375	37458.957031
620.742493	-95.340569	57122.824219	37386.234375
621.162842	-13.368803	56530.988281	37023.644531
621.583191	-77.942963	56827.031250	37268.082031
622.003418	-38.196598	56072.671875	36801.648438
622.423706	4.004435	56452.671875	36946.535156
622.843872	-80.428055	55965.230469	36736.078125
623.264038	-50.614506	55713.937500	36466.300781
623.684143	-77.942963	55581.777344	36405.621094
624.104126	-80.428055	55160.210938	36325.007813
624.524170	-28.264193	55315.992188	36366.644531
624.944031	-25.781321	55877.351563	35961.828125
625.364014	-58.066463	55521.617188	35821.867188
625.783752	-30.747169	55104.832031	35815.667969
626.203552	-5.922522	53765.898438	35380.468750
626.623230	41.215668	54261.441406	35648.019531
627.042969	-75.458122	54144.480469	35325.976563
627.462585	-5.922522	54250.781250	35266.386719
627.882141	-18.333467	53492.941406	35412.808594
628.301697	-48.130684	53623.824219	34992.125000
628.721130	-3.440592	53260.605469	34798.468750
629.140625	-20.816027	52980.238281	34980.386719
629.559998	-75.458122	52836.347656	34662.621094
629.979309	-90.369354	52098.050781	34457.371094
630.398560	-70.488464	52933.289063	34447.839844
630.817810	-33.230251	52266.546875	34319.253906
631.237000	31.294945	51732.992188	34196.867188
631.656067	-50.614506	52906.503906	34226.800781
632.075195	-25.781321	52367.597656	33768.796875
632.494202	-18.333467	52433.031250	34074.453125
632.913208	-5.922522	52716.585938	34129.894531
633.332092	-82.913254	52305.605469	34012.800781
633.750977	-65.519371	52081.914063	34116.371094
634.169739	-112.743393	51815.730469	34140.765625
634.588562	-53.098297	51367.453125	33576.648438
635.007263	-60.550571	52318.644531	33903.453125
635.425964	-63.034920	51972.492188	33353.156250
635.844543	-28.264193	51666.375000	33526.054688
636.263123	-102.798264	51660.042969	33402.210938
636.681641	-55.582325	52081.914063	33625.015625
637.100037	-82.913254	51822.109375	33627.464844
637.518494	-0.958767	51975.707031	33440.167969
637.936829	21.372566	51631.562500	33399.546875
638.355164	-35.713303	51480.269531	33200.425781
638.773438	-30.747169	51956.453125	33386.007813
639.191650	-50.614506	51336.210938	33030.789063
639.609863	-45.646973	51927.597656	33298.996094
640.027893	-5.922522	51069.308594	32858.898438
640.445984	8.967220	51634.726563	33146.476563
640.863953	21.372566	51121.820313	33245.273438
641.281921	-87.883835	51298.785156	33395.554688
641.699829	-82.913254	50601.992188	33119.828125
642.117676	28.814472	50915.542969	33263.476563
642.535461	-53.098297	50750.625000	33148.031250
642.953247	-85.398422	50508.445313	32785.152344
643.370972	-10.886559	50262.796875	32776.492188
643.788635	-23.298689	51035.394531	32645.650391
644.206177	-23.298689	50589.902344	32730.955078
644.623718	-13.368803	50280.687500	32552.111328
645.041260	-72.973236	50976.925781	32704.740234
645.458618	-20.816027	50182.476563	32705.185547
645.876099	-45.646973	51448.875000	32654.089844
646.293396	-58.066463	50854.328125	32553.000000
646.710693	31.294945	50771.941406	32611.431641
647.127991	-58.066463	51072.390625	32529.000000
647.545166	-28.264193	50784.125000	32655.199219
647.962341	-68.003799	50457.304688	32451.230469
648.379333	-75.458122	50817.671875	32417.453125
648.796448	-60.550571	50686.808594	32486.564453
649.213379	13.929725	51364.328125	32388.791016
649.630310	-65.519371	50535.566406	32542.779297
650.047180	-48.130684	50093.554688	32355.232422
650.463989	-23.298689	50529.539063	32685.636719
650.880859	-45.646973	50790.222656	32273.449219
651.297546	31.294945	51023.070313	32379.457031
651.714233	-30.747169	50238.972656	32056.720703
652.130859	-25.781321	50726.296875	32096.289063
652.547485	-60.550571	50403.277344	31812.820313
652.963928	-23.298689	50526.519531	31928.666016
653.380432	-50.614506	51103.273438	32073.394531
653.796814	-72.973236	50301.574219	32040.494141
654.213196	-63.034920	49904.957031	32218.546875
654.629578	-55.582325	49793.687500	32075.166016
655.045837	-95.340569	49846.328125	32036.490234
655.462036	-63.034920	50099.472656	31904.207031
655.878174	4.004435	50412.273438	32264.109375
656.294312	-80.428055	50040.359375	32078.281250
656.710327	-10.886559	49773.253906	32065.835938
657.126404	-40.679996	49896.160156	31895.308594
657.542358	-13.368803	49613.250000	31839.943359
657.958252	-77.942963	49471.605469	31907.537109
658.374084	-38.196598	49601.660156	31802.365234
658.789917	-95.340569	49960.789063	32046.492188
659.205688	-25.781321	49869.765625	31982.240234
659.621338	-60.550571	49256.398438	31676.503906
660.037048	-58.066463	49023.261719	31614.230469
660.452637	-38.196598	49477.371094	31635.582031
660.868164	-18.333467	50161.699219	31507.912109
661.283691	21.372566	49156.617188	31391.808594
661.699158	-45.646973	49125.343750	31418.500000
662.114502	18.891678	49116.816406	31347.986328
662.529846	-80.428055	48899.074219	31220.519531
662.945129	-30.747169	49202.179688	31475.666016
663.360413	31.294945	48842.832031	31096.150391
663.775635	23.853350	49122.500000	31122.851563
664.190674	-3.440592	48736.316406	31236.093750
664.605835	11.448524	48300.976563	31438.296875
665.020813	-68.003799	48180.292969	31263.453125
665.435791	-75.458122	48477.535156	31234.753906
665.850769	-38.196598	47835.089844	30759.269531
666.265625	-60.550571	48101.062500	30681.822266
666.680420	-3.440592	48243.304688	30846.496094
667.095215	-38.196598	48177.558594	30895.232422
667.509949	-95.340569	48193.980469	30828.695313
667.924622	-82.913254	47321.601563	30581.681641
668.339233	-75.458122	47729.988281	30770.394531
668.753784	-72.973236	47951.460938	30789.089844
669.168335	-13.368803	47843.195313	30464.839844
669.582825	-15.851151	47748.820313	30598.150391
669.997192	-80.428055	48008.484375	30408.308594
670.411560	-58.066463	47994.894531	30340.203125
670.825867	-10.886559	47783.839844	30311.939453
671.240173	13.929725	47913.515625	30205.550781
671.654358	36.255444	47326.902344	30202.656250
672.068481	-60.550571	46833.167969	30313.496094
672.482605	-105.284424	46992.417969	30033.498047
672.896667	-13.368803	46861.820313	30159.029297
673.310669	-85.398422	46971.480469	29935.562500
673.724609	-50.614506	46773.351563	29803.345703
674.138489	-115.229988	46711.070313	29666.011719
674.552307	-15.851151	46381.117188	29641.753906
674.966064	8.967220	46393.937500	29564.296875
675.379822	-13.368803	46646.332031	29393.804688
675.793579	-50.614506	46378.554688	29282.746094
676.207153	13.929725	46370.863281	29434.980469
676.620789	-60.550571	45524.128906	29280.742188
677.034241	-0.958767	45611.546875	29333.488281
677.447754	-95.340569	45216.257813	29117.830078
677.861206	6.485948	44982.250000	28900.857422
678.274597	-23.298689	44962.613281	29075.324219
678.687866	-85.398422	44737.578125	28818.746094
679.101135	-13.368803	45181.671875	28754.880859
679.514404	-28.264193	45055.976563	28760.890625
679.927551	-8.404421	44686.406250	28582.230469
680.340698	-30.747169	44925.828125	28667.888672
680.753723	-60.550571	45260.777344	28584.455078
681.166748	1.522819	45362.394531	28520.380859
681.579712	-30.747169	45439.429688	28419.824219
681.992615	-97.826401	44628.011719	28408.037109
682.405457	-23.298689	44613.425781	28458.535156
682.818298	-63.034920	44557.570313	28351.976563
683.231018	-43.163361	43965.121094	28200.062500
683.643738	-13.368803	44005.781250	28066.626953
684.056335	26.333895	43891.074219	27897.851563
684.468994	8.967220	43598.535156	27814.919922
684.881531	1.522819	44012.960938	27818.703125
685.293945	-50.614506	43805.246094	27804.248047
685.706482	-63.034920	44034.507813	27610.853516
686.118774	-28.264193	43138.613281	27566.625000
686.531128	-30.747169	43251.402344	27604.851563
686.943481	-35.713303	43094.035156	27419.060547
687.355713	-45.646973	43047.156250	27403.949219
687.767883	6.485948	43319.675781	27380.619141
688.179932	26.333895	42988.621094	27401.501953
688.592041	13.929725	42494.875000	27295.960938
689.004089	13.929725	42710.906250	27143.566406
689.416016	6.485948	42664.375000	27267.746094
689.827881	-65.519371	42406.847656	27166.892578
690.239868	-70.488464	42033.031250	27153.119141
690.651611	-15.851151	42541.265625	26955.455078
691.063354	-92.854973	42467.062500	26881.957031
691.475098	8.967220	42583.042969	26951.236328
691.886719	-77.942963	42381.390625	27122.466797
692.298340	-75.458122	41993.937500	26747.414063
692.709900	-38.196598	42113.601563	26920.371094
693.121460	-25.781321	42175.828125	26642.646484
693.532837	-92.854973	42258.890625	26531.904297
693.944214	-68.003799	41922.710938	26608.910156
694.355652	-53.098297	41915.820313	26697.912109
694.766846	8.967220	41428.488281	26521.027344
695.178101	-45.646973	41362.394531	26621.117188
695.589294	-132.638809	41451.292969	26447.142578
696.000366	-30.747169	40912.621094	26509.935547
696.411438	-132.638809	41540.296875	26313.816406
696.822510	6.485948	41378.339844	26092.041016
697.233459	-45.646973	41801.109375	26217.775391
697.644409	4.004435	41524.312500	26136.609375
698.055298	-50.614506	41407.968750	26045.039063
698.466064	-87.883835	41405.691406	26030.183594
698.876831	33.775314	41803.402344	25872.804688
699.287537	-82.913254	41119.023438	25869.037109
699.698181	-90.369354	41153.093750	25761.337891
700.108826	-80.428055	41169.003906	25796.789063
700.519348	13.929725	41544.863281	25960.355469
700.929810	-70.488464	40946.609375	25873.021484
701.340271	1.522819	40650.218750	25759.783203
701.750732	-3.440592	40192.730469	25437.498047
702.161011	-75.458122	40215.222656	25415.796875
702.571350	8.967220	40485.464844	25394.765625
702.981567	-112.743393	40366.019531	25280.087891
703.391724	-58.066463	39992.769531	25274.779297
703.801880	26.333895	39790.902344	25336.980469
704.211914	-100.312347	39842.460938	25384.357422
704.621948	38.735607	39777.457031	25397.421875
705.031921	-38.196598	40147.765625	25322.369141
705.441895	-75.458122	39997.261719	25271.455078
705.851746	-30.747169	40147.765625	24988.220703
706.261536	-40.679996	40021.957031	25004.367188
706.671265	-33.230251	39464.085938	24926.726563
707.081055	-85.398422	39748.328125	24951.501953
707.490662	-40.679996	39891.792969	25113.662109
707.900330	-48.130684	40212.972656	25082.687500
708.309814	6.485948	39752.808594	24771.488281
708.719299	-65.519371	39450.667969	24869.890625
709.128784	-53.098297	39354.566406	24546.031250
709.538147	-55.582325	39187.082031	24575.640625
709.947510	-38.196598	39636.351563	24498.082031
710.356750	-30.747169	39077.750000	24429.369141
710.766052	-120.203339	39837.976563	24546.914063
711.175171	-0.958767	38961.796875	24534.320313
711.584290	-58.066463	38618.800781	24436.435547
711.993347	-0.958767	38814.730469	24510.455078
712.402405	-75.458122	39265.218750	24360.003906
712.811401	-28.264193	38739.007813	24334.826172
713.220276	41.215668	38176.343750	24327.974609
713.629150	-70.488464	38656.640625	24240.302734
714.037964	-43.163361	38727.878906	24339.242188
714.446777	-72.973236	38854.828125	24159.048828
714.855408	-58.066463	38460.855469	24193.269531
715.264099	-115.229988	38176.343750	24287.560547
715.672668	-45.646973	38109.707031	24070.748047
716.081177	-3.440592	37987.570313	23916.486328
716.489746	-72.973236	38287.445313	23821.617188
716.898132	-3.440592	37823.312500	23751.250000
717.306519	-117.716675	38380.804688	23675.164063
717.714844	-10.886559	37967.589844	23593.582031
718.123108	-8.404421	37091.574219	23561.394531
718.531372	1.522819	36861.144531	23422.085938
718.939514	-3.440592	36918.750000	23342.312500
719.347595	-45.646973	36737.093750	23219.384766
719.755676	-92.854973	37388.582031	23247.359375
720.163696	-13.368803	36978.570313	22907.369141
720.571716	-40.679996	36819.054688	22776.425781
720.979614	-3.440592	36816.839844	22892.621094
721.387451	-102.798264	36783.613281	22785.666016
721.795227	-0.958767	36617.480469	22795.130859
722.202942	-13.368803	36037.246094	22691.275391
722.610718	-77.942963	36141.328125	22639.359375
723.018311	-77.942963	36340.636719	22408.234375
723.425903	-60.550571	35853.441406	22448.685547
723.833374	-63.034920	35501.304688	22326.673828
724.240906	-35.713303	35321.898438	22342.939453
724.648376	16.410820	35738.285156	22341.181641
725.055725	-30.747169	36052.746094	22324.476563
725.463013	-45.646973	36464.660156	22254.800781
725.870300	-127.664253	35729.421875	22148.226563
726.277466	18.891678	35286.457031	21962.156250
726.684631	4.004435	35465.871094	21925.917969
727.091797	-10.886559	35853.441406	21885.072266
727.498779	-20.816027	35355.125000	21727.429688
727.905823	-20.816027	35417.140625	21833.470703
728.312805	-0.958767	35282.027344	21874.750000
728.719666	-80.428055	34668.289063	21825.568359
729.126526	-35.713303	34976.304688	21815.904297
729.533264	-72.973236	34300.316406	21835.228516
729.940063	-53.098297	35401.636719	21743.673828
730.346680	-95.340569	35058.281250	21864.212891
730.753357	-70.488464	34584.066406	21734.015625
731.159851	-85.398422	34996.246094	21647.091797
731.566406	-10.886559	34823.414063	21678.042969
731.972900	-97.826401	34872.164063	21894.515625
732.379272	-33.230251	34963.011719	21937.119141
732.785645	8.967220	35102.589844	21805.367188
733.191895	-8.404421	35155.757813	21948.980469
733.598206	16.410820	35126.960938	22031.347656
734.004333	-82.913254	34863.304688	21777.044922
734.410522	-38.196598	35503.523438	21795.044922
734.816528	-63.034920	35290.886719	21955.787109
735.222656	31.294945	35191.203125	21976.214844
735.628662	-10.886559	35341.832031	22179.425781
736.034546	-25.781321	35826.867188	22132.406250
736.440430	31.294945	36099.253906	22078.359375
736.846252	-70.488464	36032.816406	22189.753906
737.252014	-33.230251	36302.992188	22342.058594
737.657715	-150.052933	35860.082031	22241.835938
738.063354	-40.679996	35669.625000	22351.294922
738.468933	8.967220	36134.687500	22388.226563
738.874512	41.215668	35948.667969	22328.652344
739.280029	-100.312347	36544.390625	22584.810547
739.685486	-38.196598	36522.246094	22660.916016
740.090881	-112.743393	37189.082031	22605.265625
740.496216	13.929725	37295.472656	22626.603516
740.901550	-55.582325	37308.773438	22595.367188
741.306702	-87.883835	36892.164063	22715.917969
741.711914	8.967220	36878.871094	22715.917969
742.117004	-63.034920	36046.105469	22516.632813
742.522095	-20.816027	36739.308594	22555.560547
742.927124	-53.098297	36314.062500	22355.251953
743.332031	-77.942963	35492.449219	22184.039063
743.737000	-25.781321	36001.812500	22342.503906
744.141785	-63.034920	35707.277344	22229.748047
744.546631	-102.798264	35397.207031	22086.927734
744.951355	1.522819	34783.527344	22162.066406
745.356079	-18.333467	35457.007813	22100.109375
745.760620	-110.257050	35033.910156	21873.873047
746.165283	38.735607	35191.203125	21656.091797
746.569824	-70.488464	35005.105469	21532.974609
746.974243	-95.340569	34750.289063	21459.251953
747.378723	-5.922522	34158.410156	21241.216797
747.783020	-72.973236	34114.058594	21176.087891
748.187378	-15.851151	33657.101563	21037.082031
748.591614	33.775314	33597.191406	21008.804688
748.995850	-50.614506	33244.289063	20974.832031
749.399963	13.929725	33293.125000	20945.238281
749.804077	18.891678	32986.726563	20746.037109
750.208130	16.410820	33159.921875	20638.466797
750.612122	-13.368803	32418.027344	20457.980469
751.016052	-87.883835	32484.693359	20401.042969
751.419922	-120.203339	32686.875000	20305.134766
751.823792	-80.428055	31706.650391	20117.738281
752.227478	11.448524	32240.232422	19967.373047
752.631226	-105.284424	32049.064453	19884.216797
753.034851	-13.368803	31804.494141	19604.164063
753.438477	-115.229988	31373.029297	19709.388672
753.842102	-75.458122	31170.589844	19641.134766
754.245544	-45.646973	30825.710938	19504.634766
754.648987	8.967220	30685.513672	19292.697266
755.052368	-40.679996	30908.042969	19232.339844
755.455750	-25.781321	30914.716797	19274.328125
755.859009	-3.440592	30899.140625	19187.076172
756.262268	-50.614506	30347.232422	19114.039063
756.665405	-102.798264	30302.718750	19029.857422
757.068542	26.333895	30391.744141	18877.021484
757.471680	-35.713303	30153.595703	18696.656250
757.874634	-10.886559	30124.658203	18681.572266
758.277588	-58.066463	29672.822266	18534.230469
758.680420	-50.614506	29436.888672	18469.087891
759.083374	-82.913254	29552.626953	18322.404297
759.486084	-20.816027	29890.949219	18426.677734
759.888916	-20.816027	29160.912109	18406.566406
760.291504	80.881927	28718.076172	18306.666016
760.694214	-15.851151	28760.353516	18122.605469
761.096802	4.004435	28922.792969	18120.855469
761.499268	-112.743393	29107.498047	18055.496094
761.901733	-68.003799	28593.482422	17838.417969
762.304199	-28.264193	28537.861328	17919.087891
762.706543	-20.816027	28815.980469	17925.865234
763.108826	-35.713303	28889.412109	17834.265625
763.511108	-58.066463	28531.187500	17703.312500
763.913208	11.448524	28762.578125	17687.791016
764.315369	-18.333467	28548.984375	17475.271484
764.717529	-8.404421	28317.628906	17629.414063
765.119568	-13.368803	28288.714844	17489.482422
765.521545	-105.284424	28244.228516	17418.421875
765.923462	-35.713303	27968.464844	17461.714844
766.325317	-25.781321	27599.423828	17370.751953
766.727112	23.853350	27379.412109	17242.384766
767.128845	-130.151474	26848.556641	17191.210938
767.530518	-72.973236	27175.015625	17023.451172
767.932251	-23.298689	27030.644531	17032.634766
768.333862	11.448524	27092.832031	16915.386719
768.735413	-90.369354	27039.525391	16745.818359
769.136841	-85.398422	26957.357422	16851.500000
769.538269	-8.404421	26706.476563	16751.507813
769.939636	-155.029297	26706.476563	16696.148438
770.341003	-105.284424	26733.113281	16842.531250
770.742249	18.891678	26247.179688	16544.482422
771.143433	43.695488	26171.773438	16577.312500
771.544617	-110.257050	25684.138672	16389.054688
771.945740	-40.679996	26269.357422	16388.835938
772.346802	-45.646973	26193.949219	16324.683594
772.747803	-100.312347	26222.783203	16190.666992
773.148682	-82.913254	25513.582031	16064.720703
773.549622	8.967220	25885.785156	16064.060547
773.950439	63.531151	25872.486328	16083.121094
774.351196	-40.679996	25848.109375	16132.185547
774.751892	-75.458122	25566.734375	16039.962891
775.152588	31.294945	25881.351563	16216.510742
775.553162	-87.883835	25168.226563	16094.730469
775.953735	23.853350	25546.800781	16063.843750
776.354309	-5.922522	25551.230469	15867.081055
776.754639	-80.428055	25172.652344	15720.657227
777.155090	-33.230251	24982.375000	15690.623047
777.555420	8.967220	24708.167969	15598.748047
777.955750	-15.851151	24639.640625	15622.650391
778.355896	-60.550571	24964.677734	15319.486328
778.756104	-8.404421	24958.042969	15250.130859
779.156189	-50.614506	24971.314453	15189.985352
779.556274	4.004435	24955.832031	15288.323242
779.956299	-35.713303	24681.638672	15261.325195
780.356201	58.572922	24442.970703	15092.716797
780.756165	31.294945	24400.998047	15115.336914
781.156006	-48.130684	24507.044922	14987.074219
781.555786	-15.851151	24067.562500	14927.979492
781.955505	-5.922522	24372.279297	14866.456055
782.355225	-92.854973	23842.480469	14800.964844
782.754761	-90.369354	23679.261719	14880.300781
783.154358	-20.816027	23780.714844	14708.418945
783.553894	-53.098297	23405.906250	14728.863281
783.953369	-85.398422	23860.130859	14709.958984
784.352783	-30.747169	23672.646484	14741.394531
784.752075	-5.922522	23430.148438	14634.536133
785.151367	-0.958767	23483.042969	14625.297852
785.550598	23.853350	23346.410156	14624.858398
785.949768	-45.646973	23419.126953	14544.575195
786.348877	-50.614506	23414.720703	14517.516602
786.747986	-8.404421	23364.037109	14363.472656
787.147034	38.735607	22932.369141	14252.507813
787.545959	-10.886559	23269.294922	14415.858398
787.944885	-20.816027	22991.808594	14343.219727
788.343750	-95.340569	22734.304688	14449.307617
788.742493	-38.196598	22956.583984	14469.112305
789.141235	-28.264193	22976.398438	14295.223633
789.539917	-55.582325	22976.398438	14154.494141
789.938538	-40.679996	22813.519531	14169.473633
790.337158	-30.747169	22578.119141	13954.386719
790.735718	-97.826401	22516.541016	14003.105469
791.134094	-55.582325	22696.902344	13922.856445
791.532532	-5.922522	22364.830078	13895.954102
791.930847	-58.066463	22109.902344	13877.429688
792.329224	-3.440592	22210.976563	13701.815430
792.727417	-30.747169	21736.556641	13652.374023
793.125610	-30.747169	21975.900391	13677.760742
793.523682	-38.196598	21978.097656	13654.141602
793.921753	-38.196598	21495.140625	13647.959961
794.319824	-45.646973	21556.580078	13674.007813
794.717773	1.522819	21394.220703	13498.463867
795.115723	8.967220	21503.917969	13407.216797
795.513550	-38.196598	21159.548828	13220.846680
795.911377	18.891678	21212.175781	13450.083984
796.309082	-3.440592	21293.320313	13418.044922
796.706787	-10.886559	21339.378906	13488.964844
797.104370	-117.716675	21372.283203	13367.655273
797.501953	-70.488464	21337.187500	13364.339844
797.899536	-15.851151	21407.382813	13311.507813
798.296936	-35.713303	21093.771484	13197.179688
798.694397	-70.488464	21124.466797	13333.175781
799.091736	-8.404421	21310.865234	13187.005859
799.489014	-18.333467	21049.923828	13084.118164
799.886230	31.294945	21150.777344	12976.310547
800.283447	46.175343	20986.353516	12924.930664
800.680542	-87.883835	21275.773438	12904.333008
801.077637	-30.747169	20966.625000	12826.346680
801.474670	4.004435	20716.802734	12812.829102
801.871643	53.614147	21017.042969	12907.653320
802.268555	-3.440592	20745.285156	12828.563477
802.665405	-43.163361	20651.078125	12853.824219
803.062256	23.853350	20786.916016	12747.886719
803.458923	-100.312347	20668.605469	12655.424805
803.855652	-53.098297	20598.503906	12592.206055
804.252258	-0.958767	20259.066406	12542.945313
804.648804	-30.747169	20438.615234	12513.207031
805.045410	1.522819	20296.283203	12441.060547
805.441833	-53.098297	20088.314453	12489.458008
805.838257	26.333895	19663.792969	12492.343750
806.234619	-53.098297	19718.486328	12453.271484
806.630859	-30.747169	19981.070313	12328.679688
807.027100	-87.883835	19928.544922	12415.081055
807.423279	-33.230251	19506.291016	12302.683594
807.819458	-45.646973	19860.708984	12305.572266
808.215515	-10.886559	20035.785156	12288.683594
808.611572	6.485948	19714.111328	12129.510742
809.007507	-35.713303	19720.673828	12174.430664
809.403381	-30.747169	19731.613281	12082.356445
809.799194	-13.368803	19490.978516	11992.680664
810.195068	-30.747169	19532.539063	12012.708984
810.590759	-72.973236	19230.716797	11976.209961
810.986450	-5.922522	19847.580078	12074.124023
811.382080	-33.230251	19897.908203	12056.327148
811.777649	-28.264193	19600.349609	12042.531250
812.173157	18.891678	19665.980469	11804.726563
812.568665	-28.264193	19490.978516	11831.460938
812.964050	-28.264193	19130.126953	11720.482422
813.359375	-40.679996	19154.179688	11691.945313
813.754639	-15.851151	19178.234375	11671.879883
814.149841	-25.781321	18815.277344	11722.265625
814.545105	-30.747169	18928.966797	11800.491211
814.940186	-48.130684	18640.380859	11700.417969
815.335266	16.410820	18861.187500	11685.926758
815.730347	31.294945	18690.662109	11606.532227
816.125244	-53.098297	18863.373047	11624.375000
816.520203	-85.398422	18760.619141	11575.075195
816.914978	-8.404421	18498.287109	11623.484375
817.309753	-40.679996	18714.708984	11475.761719
817.704468	-97.826401	18434.890625	11429.766602
818.099182	-18.333467	18325.591797	11313.833008
818.493774	-18.333467	18216.292969	11221.963867
818.888367	-3.440592	18382.427734	11190.435547
819.282898	-72.973236	18321.220703	11291.259766
819.677307	-25.781321	18360.566406	11213.913086
820.071716	6.485948	18120.107422	11268.463867
820.466003	-23.298689	18032.667969	11225.989258
820.860291	-53.098297	17995.505859	11123.557617
821.254517	-10.886559	17593.248047	11122.437500
821.648743	-72.973236	17774.708984	11073.211914
822.042786	-115.229988	17818.431641	11104.762695
822.436890	-15.851151	18109.179688	11030.236328
822.830872	-13.368803	18146.339844	11015.237305
823.224792	38.735607	17901.503906	11071.870117
823.618774	-77.942963	17785.640625	10924.994141
824.012512	-20.816027	17542.960938	10921.409180
824.406311	-68.003799	17407.394531	10749.952148
824.799988	-25.781321	17728.798828	10858.675781
825.193665	1.522819	17298.056641	10769.911133
825.587280	4.004435	17206.207031	10827.747070
825.980835	6.485948	17123.095703	10752.867188
826.374329	-25.781321	17221.515625	10686.927734
826.767761	-8.404421	17361.474609	10684.458008
827.161194	1.522819	17212.767578	10718.106445
827.554443	73.446510	17514.537109	10704.198242
827.947754	1.522819	16998.417969	10662.919922
828.340942	4.004435	16867.162109	10589.308594
828.734131	-40.679996	17138.406250	10525.993164
829.127136	-77.942963	17011.544922	10485.789063
829.520264	-100.312347	17173.402344	10568.656250
829.913208	-72.973236	16720.564453	10493.200195
830.306152	-110.257050	16668.042969	10405.125000
830.699097	-28.264193	16457.925781	10360.841797
831.091797	-68.003799	16252.114258	10355.445313
831.484619	51.134735	16263.062500	10274.939453
831.877319	51.134735	16387.871094	10287.758789
832.270020	-38.196598	16587.068359	10261.664063
832.662537	-28.264193	16521.406250	10251.317383
833.055054	6.485948	16440.412109	10127.301758
833.447510	-28.264193	16652.724609	10115.817383
833.839966	-23.298689	16376.922852	10112.665039
834.232361	-58.066463	16466.681641	10059.511719
834.624634	-33.230251	16201.743164	10010.619141
835.016907	13.929725	16118.512695	10078.657227
835.409058	-35.713303	15737.227539	10014.000000
835.801208	16.410820	15833.675781	9950.891602
836.193298	-30.747169	15954.204102	9740.408203
836.585327	-20.816027	15605.671875	9692.313477
836.977295	-85.398422	16083.466797	9747.406250
837.369202	-70.488464	15625.408203	9725.281250
837.761047	-20.816027	15853.399414	9780.813477
838.152832	-38.196598	15704.341797	9675.148438
838.544617	-38.196598	15680.225586	9650.301758
838.936218	-28.264193	15564.004883	9626.353516
839.327942	-30.747169	15581.549805	9545.219727
839.719421	-18.333467	15877.507813	9576.186523
840.111023	78.403511	15458.719727	9635.391602
840.502380	-33.230251	15221.723633	9475.798828
840.893860	-30.747169	15375.349609	9391.185547
841.285217	-65.519371	15309.517578	9486.203125
841.676453	-63.034920	15070.224609	9337.083984
842.067749	-72.973236	15425.814453	9357.006836
842.458862	4.004435	15338.045898	9369.909180
842.849976	31.294945	15221.723633	9323.046875
843.241028	58.572922	15158.059570	9351.573242
843.632019	-43.163361	14874.713867	9251.027344
844.022949	-20.816027	15129.514648	9209.111328
844.413879	-77.942963	15127.319336	9182.143555
844.804749	-13.368803	15221.723633	9135.899414
845.195496	-23.298689	14848.343750	9124.789063
845.586182	-15.851151	14782.409180	9130.458008
845.976807	-8.404421	14496.522461	9074.897461
846.367432	-8.404421	14639.500000	9017.271484
846.757996	-50.614506	14648.296875	8901.497070
847.148499	-72.973236	14558.121094	9015.683594
847.538879	1.522819	14267.607422	8851.525391
847.929260	-28.264193	14470.118164	8800.170898
848.319641	13.929725	14474.520508	8823.805664
848.709839	-13.368803	14362.278320	8715.599609
849.100098	-53.098297	14100.201172	8705.820313
849.490234	23.853350	14274.212891	8663.967773
849.880310	1.522819	14296.233398	8720.603516
850.270325	-68.003799	14020.865234	8705.592773
850.660339	-122.690247	13870.940430	8545.844727
851.050171	-50.614506	14075.961914	8573.848633
851.440125	-97.826401	13698.855469	8548.122070
851.829895	-75.458122	13784.913086	8451.544922
852.219604	-8.404421	13970.165039	8363.565430
852.609314	-28.264193	13698.855469	8419.413086
852.998901	18.891678	13539.894531	8488.681641
853.388550	-15.851151	13672.368164	8442.429688
853.778015	-0.958767	13433.859375	8457.241211
854.167480	4.004435	13389.664063	8349.427734
854.556885	13.929725	13199.519531	8300.165039
854.946228	-53.098297	13398.503906	8325.253906
855.335571	33.775314	13652.502930	8212.769531
855.724731	36.255444	13438.279297	8240.615234
856.113953	13.929725	13356.511719	8148.612793
856.503052	-25.781321	13064.547852	8128.516113
856.892151	-13.368803	13093.320313	8087.625000
857.281067	-68.003799	13095.533203	8086.025879
857.670105	8.967220	13292.401367	8097.905762
858.058960	-0.958767	13276.924805	8053.349121
858.447754	-38.196598	12807.638672	8036.436523
858.836609	-18.333467	12973.781250	8055.634766
859.225281	-58.066463	12670.189453	8117.321777
859.613892	-90.369354	12918.415039	8078.486328
860.002502	23.853350	12694.583008	8027.979004
860.391052	-33.230251	12829.798828	7900.143066
860.779541	-43.163361	12967.137695	7935.145996
861.167969	1.522819	12605.866211	7871.084473
861.556335	31.294945	12612.521484	7834.235352
861.944702	-38.196598	12312.810547	7747.677734
862.332947	-10.886559	12550.398438	7794.396973
862.721069	-28.264193	12395.000977	7737.826660
863.109253	-60.550571	12306.144531	7681.691895
863.497314	-40.679996	12270.590820	7717.895020
863.885376	-45.646973	12381.675781	7708.501953
864.273315	-33.230251	12283.924805	7666.793945
864.661255	-68.003799	11988.134766	7565.904785
865.049072	63.531151	12161.663086	7635.846191
865.436890	11.448524	12001.489258	7550.077148
865.824707	-10.886559	12032.645508	7459.200195
866.212280	-50.614506	11948.065430	7458.281738
866.599915	-25.781321	12161.663086	7412.588867
866.987488	-20.816027	11972.552734	7389.391113
867.375061	4.004435	11994.810547	7342.525879
867.762451	4.004435	12074.919922	7327.129883
868.149841	6.485948	11582.567383	7286.908203
868.537170	-70.488464	11794.381836	7267.368164
868.924438	-8.404421	11827.802734	7176.751465
869.311707	8.967220	11575.873047	7123.825195
869.698853	6.485948	11830.031250	7194.695801
870.085938	-60.550571	11658.404297	7126.584961
870.472961	-8.404421	11410.690430	7144.768066
870.859985	21.372566	11169.317383	7069.722656
871.246887	6.485948	11120.106445	7015.371094
871.633789	26.333895	11066.402344	7010.301758
872.020569	-75.458122	11115.630859	6912.126953
872.407349	-18.333467	11046.259766	6924.344727
872.794067	1.522819	11106.681641	6819.643066
873.180725	51.134735	11294.518555	6762.412109
873.567322	-65.519371	11155.898438	6770.029785
873.953796	-8.404421	10795.375000	6671.205078
874.340332	23.853350	10902.945313	6716.931641
874.726624	-25.781321	10645.099609	6646.255859
875.113037	-53.098297	10575.520508	6611.365234
875.499329	8.967220	10478.955078	6556.121094
875.885559	-5.922522	10409.299805	6477.256836
876.271729	-135.126251	10085.320313	6425.887695
876.657898	-35.713303	10065.047852	6343.930664
877.044006	-13.368803	10139.365234	6408.297363
877.429932	-25.781321	10251.897461	6428.664551
877.815918	-28.264193	10150.622070	6286.713379
878.201782	18.891678	10001.960938	6210.229004
878.587585	56.093582	10197.892578	6164.084473
878.973389	-13.368803	10080.815430	6097.734375
879.359070	21.372566	10175.384766	6172.897461
879.744751	-43.163361	9873.451172	6088.219727
880.130310	-8.404421	10089.825195	6086.131348
880.515930	-120.203339	9681.603516	6104.231934
880.901367	-125.177261	9582.194336	6016.489258
881.286804	-60.550571	9677.085938	6105.391113
881.672180	-13.368803	9586.713867	6034.598633
882.057434	-77.942963	9446.524414	6045.512207
882.442749	-105.284424	9566.372070	6022.526367
882.827942	-92.854973	9690.637695	5989.550293
883.213013	-20.816027	9385.430664	5941.462891
883.598145	-43.163361	9670.310547	5946.342773
883.983154	-18.333467	9530.202148	5927.056152
884.368042	8.967220	9419.374023	5870.575195
884.753052	-38.196598	9523.418945	5776.381836
885.137817	-63.034920	9505.330078	5810.811523
885.522644	-72.973236	9197.458984	5748.458496
885.907349	-70.488464	9231.447266	5692.592773
886.292053	-80.428055	9158.927734	5684.909668
886.676636	-77.942963	9211.054688	5687.703125
887.061157	-30.747169	9417.111328	5738.917480
887.445740	4.004435	9138.524414	5741.010742
887.830078	1.522819	9229.181641	5712.149414
888.214539	-43.163361	9122.652344	5664.184082
888.598816	-45.646973	8882.095703	5566.566895
888.983093	-20.816027	8838.932617	5548.385742
889.367249	63.531151	8652.495117	5541.858398
889.751465	16.410820	8743.471680	5522.975098
890.135498	36.255444	8782.119141	5615.269043
890.519531	-58.066463	9127.188477	5460.938965
890.903503	-40.679996	9036.463867	5471.202148
891.287415	-48.130684	8925.246094	5467.936523
891.671326	-50.614506	8684.344727	5401.204590
892.055054	-30.747169	8625.190430	5445.074707
892.438843	21.372566	8645.669922	5388.600586
892.822510	-53.098297	8543.243164	5368.058105
893.206116	-45.646973	8591.051758	5430.842285
893.589661	-30.747169	8404.275391	5293.093750
893.973206	38.735607	8515.916992	5221.120605
894.356628	-13.368803	8620.639648	5289.589844
894.739990	-135.126251	8370.080078	5202.652832
895.123352	8.967220	8287.977539	5179.271973
895.506592	-35.713303	8237.779297	5139.278809
895.889832	1.522819	8217.238281	5125.476563
896.272949	-70.488464	8148.745605	5130.389648
896.656067	-48.130684	7995.649414	5056.912598
897.039063	-85.398422	8103.063477	4948.014160
897.422058	-85.398422	7709.550781	4992.288086
897.804993	-30.747169	8162.446777	4948.951660
898.187866	-38.196598	8004.794922	4924.815918
898.570618	-23.298689	7945.341797	4901.379883
898.953369	-87.883835	7931.617188	4856.367188
899.336121	23.853350	8032.226074	4833.385254
899.718689	-15.851151	7668.301270	4767.932129
900.101257	-23.298689	7853.822266	4755.495117
900.483704	-5.922522	7633.916504	4741.880371
900.866211	-77.942963	7775.981445	4683.186035
901.248596	-3.440592	7608.694824	4670.973633
901.630920	46.175343	7718.715820	4724.275391
902.013184	4.004435	7523.824707	4631.979004
902.395386	-35.713303	7496.287598	4696.336426
902.777588	18.891678	7468.743652	4618.351563
903.159668	13.929725	7307.958008	4602.372559
903.541687	-0.958767	7225.190430	4571.346191
903.923645	-28.264193	7174.583984	4527.144043
904.305603	-48.130684	7206.790527	4554.185059
904.687500	-23.298689	7335.535645	4518.678223
905.069275	-85.398422	7560.532227	4547.131348
905.451050	-48.130684	7356.214844	4468.102539
905.832642	-48.130684	7395.266113	4442.687988
906.214294	43.695488	7484.811523	4399.141113
906.595825	-58.066463	7353.917969	4465.514160
906.977417	-70.488464	7057.191406	4424.800781
907.358826	-70.488464	7117.052246	4418.915527
907.740234	-80.428055	7289.569824	4489.041504
908.121582	-75.458122	7275.776367	4492.805664
908.502869	-55.582325	7271.179199	4473.514160
908.884033	-15.851151	7314.853027	4498.214844
909.265198	-68.003799	7574.294434	4499.862305
909.646301	-25.781321	7406.749512	4547.836914
910.027344	-40.679996	7284.972168	4549.482910
910.408325	-70.488464	7284.972168	4596.497070
910.789246	-45.646973	7379.187988	4636.208008
911.170105	66.010178	7487.106934	4647.719238
911.550903	-28.264193	7516.941406	4635.973145
911.931641	-85.398422	7461.857910	4681.307617
912.312317	-28.264193	7645.379395	4747.983398
912.692932	-58.066463	7546.768555	4722.632813
913.073547	-10.886559	7867.553711	4800.780762
913.453979	-28.264193	7972.784668	4782.949707
913.834473	-60.550571	8075.647461	4853.083984
914.214783	-45.646973	8249.189453	4836.902832
914.595154	18.891678	8182.996094	4894.347168
914.975464	36.255444	8242.342773	4927.863281
915.355652	13.929725	8023.083008	4887.549316
915.735840	-28.264193	8157.879883	4952.466309
916.115845	-20.816027	8210.390625	4952.231934
916.495972	18.891678	8404.275391	4879.109375
916.875854	-28.264193	8082.502441	4923.176758
917.255859	-112.743393	8228.650391	4909.582520
917.635620	-60.550571	8075.647461	4892.003418
918.015503	-97.826401	8084.786621	4935.127441
918.395203	-40.679996	7927.042969	4911.926758
918.774902	-25.781321	7830.932617	4854.725586
919.154480	16.410820	7963.637695	4840.655762
919.534058	33.775314	7782.852051	4813.213867
919.913574	-75.458122	7961.351074	4800.780762
920.292969	-55.582325	7828.643555	4789.519531
920.672363	-55.582325	7936.192383	4733.430176
921.051636	-23.298689	7890.437988	4680.133301
921.430969	-110.257050	7668.301270	4684.594727
921.810181	-53.098297	7523.824707	4587.800293
922.189331	-87.883835	7464.152832	4535.609863
922.568420	-33.230251	7505.467285	4489.981934
922.947388	-60.550571	7294.166992	4475.161133
923.326416	-58.066463	7098.636230	4404.556152
923.705261	-63.034920	7340.130859	4428.096680
924.084106	-68.003799	6738.999512	4381.953613
924.462891	-60.550571	6891.278320	4337.204590
924.841675	-58.066463	6641.999512	4219.831055
925.220337	-20.816027	6431.575684	4145.758789
925.598938	-18.333467	6537.987793	4057.467529
925.977478	-15.851151	6422.318359	3995.573730
926.355957	-115.229988	6297.273926	3881.141357
926.734436	36.255444	6248.611816	3847.071533
927.112732	-8.404421	5972.495605	3761.849609
927.491089	-28.264193	5972.495605	3743.612793
927.869324	41.215668	5916.732422	3679.165039
928.247559	-5.922522	5909.760254	3668.499023
928.625671	-23.298689	5823.737793	3609.461182
929.003723	-68.003799	5677.126465	3475.609863
929.381775	21.372566	5618.898438	3454.710205
929.759705	-18.333467	5667.812500	3398.401611
930.137634	-55.582325	5514.016113	3317.326904
930.515381	-5.922522	5534.999512	3250.231201
930.893250	-63.034920	5416.042969	3223.808838
931.270935	-25.781321	5303.974121	3131.394775
931.648560	-5.922522	5240.889160	3175.230713
932.026123	-82.913254	5163.738281	3118.049316
932.403687	-85.398422	4943.697754	3002.631836
932.781250	-3.440592	5037.382813	2961.581787
933.158630	-28.264193	4765.486328	2905.469482
933.536011	-28.264193	4814.756348	2863.423096
933.913208	-95.340569	4490.588379	2772.576904
934.290527	-53.098297	4516.461914	2687.628906
934.667664	-8.404421	4283.382813	2622.250488
935.044800	-87.883835	4285.739746	2586.308838
935.421814	-13.368803	3981.294678	2488.474365
935.798889	1.522819	3787.322754	2437.357422
936.175842	-50.614506	3773.115967	2319.894531
936.552673	-38.196598	3626.197754	2231.634521
936.929504	8.967220	3607.225830	2154.846436
937.306274	-60.550571	3367.400146	2034.109741
937.683044	-13.368803	3210.375488	1966.315918
938.059570	-80.428055	3136.535889	1895.810425
938.436218	-68.003799	2919.459717	1818.718140
938.812744	-65.519371	2957.661865	1714.926270
939.189148	-72.973236	2752.143555	1622.636108
939.565613	-5.922522	2639.636230	1594.031372
939.941956	-77.942963	2622.867920	1555.713745
940.318237	8.967220	2476.615723	1522.959106
940.694458	-70.488464	2387.790771	1448.422119
941.070557	-23.298689	2327.724365	1391.316772
941.446655	-58.066463	2282.046631	1331.006958
941.822693	-65.519371	2041.241943	1299.860596
942.198669	33.775314	2072.584473	1263.100586
942.574646	-53.098297	1959.214111	1244.592407
942.950562	-23.298689	2007.475464	1232.900391
943.326294	28.814472	1942.316162	1198.788818
943.702026	-48.130684	1961.627808	1196.595215
944.077698	-85.398422	2041.241943	1200.007202
944.453369	-112.743393	1889.185913	1156.614258
944.828918	-30.747169	1976.108643	1163.685791
945.204468	-35.713303	1775.566162	1128.078125
945.579834	-68.003799	1896.432983	1122.223511
945.955261	-15.851151	1942.316162	1145.640381
946.330627	-8.404421	1971.282227	1126.370605
946.705811	-15.851151	1971.282227	1127.346558
947.081055	-18.333467	1857.774780	1131.737427
947.456177	-5.922522	1891.601563	1155.151611
947.831238	-25.781321	1896.432983	1163.929810
948.206238	-72.973236	1927.829468	1156.370728
948.581238	-162.494736	2019.536621	1177.582275
948.956116	28.814472	1961.627808	1215.846436
949.330933	6.485948	2161.727783	1222.424683
949.705811	-70.488464	2130.417725	1220.475952
950.080505	-90.369354	2058.120117	1225.835693
950.455139	36.255444	2026.772217	1215.602905
950.829773	-40.679996	2197.841064	1232.413086
951.204346	-38.196598	2152.095215	1241.425903
951.578735	-30.747169	2137.644287	1243.617920
951.953186	13.929725	2180.989990	1251.655518
952.327515	-105.284424	2217.095215	1297.182983
952.701843	-115.229988	2231.532959	1301.807739
953.076172	-10.886559	2250.779541	1314.218506
953.450195	-105.284424	2253.185303	1333.196533
953.824341	-105.284424	2190.619385	1326.871216
954.198486	1.522819	2202.654785	1346.332397
954.572449	-8.404421	2231.532959	1348.521362
954.946350	-50.614506	2272.427002	1381.106567
955.320251	13.929725	2154.503418	1352.169556
955.694092	-38.196598	2245.968262	1368.949585
956.067871	-53.098297	2253.185303	1375.757813
956.441589	-77.942963	2212.281738	1368.463379
956.815125	-15.851151	2361.366943	1379.404419
957.188721	18.891678	2337.337646	1383.051514
957.562256	-68.003799	2481.414795	1379.404907
957.935730	38.735607	2402.200928	1374.298950
958.309021	13.929725	2322.917236	1393.261719
958.682373	26.333895	2250.779541	1380.863647
959.055664	21.372566	2411.806641	1427.042725
959.428955	-82.913254	2392.594482	1420.725342
959.802063	-10.886559	2493.410645	1397.637329
960.175110	-33.230251	2358.963867	1388.399780
960.548157	-48.130684	2301.281982	1398.366211
960.921143	1.522819	2440.616455	1402.741333
961.294128	-65.519371	2452.617920	1354.358521
961.666809	-5.922522	2397.397949	1372.353516
962.039612	6.485948	2404.602295	1378.918335
962.412415	-60.550571	2363.769043	1390.101196
962.785095	6.485948	2310.898438	1408.088257
963.157715	-18.333467	2301.281982	1379.404419
963.530151	-53.098297	2238.750977	1392.532715
963.902649	-55.582325	2332.531494	1346.575073
964.275146	-117.716675	2274.831787	1376.244019
964.647522	-63.034920	2342.144043	1395.692261
965.019714	-55.582325	2339.740967	1386.941528
965.392029	18.891678	2306.090576	1427.529053
965.764160	-28.264193	2322.917236	1424.126953
966.136292	-18.333467	2224.314209	1368.463135
966.508423	-33.230251	2378.183105	1341.710449
966.880371	-0.958767	2330.127686	1388.885864
967.252319	-43.163361	2289.260498	1376.973389
967.624207	-55.582325	2257.995850	1361.897217
967.996094	-97.826401	2301.281982	1347.061890
968.367737	-48.130684	2267.616943	1360.195068
968.739441	-107.770691	2168.951904	1349.007690
969.111084	-92.854973	2366.171875	1374.055786
969.482666	-25.781321	2274.831787	1306.917969
969.854248	38.735607	2214.688477	1327.600708
970.225586	-40.679996	2233.938721	1276.735107
970.596985	-23.298689	2173.767090	1297.182983
970.968323	-35.713303	2156.911621	1303.267578
971.339661	-43.163361	2173.767090	1322.491577
971.710754	18.891678	2123.190674	1299.373657
972.081909	-85.398422	2200.247803	1247.515259
972.453064	-75.458122	2079.815918	1273.326904
972.824097	-33.230251	2233.938721	1271.135620
973.194946	-63.034920	2106.325439	1255.795288
973.565918	-40.679996	2038.830444	1233.631226
973.936768	-3.440592	2168.951904	1249.706665
974.307556	-35.713303	2106.325439	1236.554443
974.678284	-100.312347	2099.096436	1206.586914
975.048828	-0.958767	2079.815918	1244.105103
975.419495	23.853350	2123.190674	1226.322754
975.790039	-15.851151	2050.887207	1245.079590
976.160522	-43.163361	2031.595825	1206.343018
976.530884	-82.913254	1966.455200	1251.168335
976.901245	-75.458122	1976.108643	1225.105103
977.271606	-102.798264	1995.412720	1205.368652
977.641846	-63.034920	1978.521973	1213.653687
978.012024	-63.034920	1865.024780	1184.651855
978.382019	-25.781321	1865.024780	1193.183105
978.752136	-65.519371	1906.094604	1201.956543
979.122131	90.794418	1843.273438	1133.689087
979.492065	-58.066463	1944.730347	1148.567017
979.861877	1.522819	1935.073242	1141.494385
980.231689	6.485948	1930.244141	1143.933105
980.601440	-55.582325	1898.848633	1112.707886
980.971191	-63.034920	1785.242310	1096.358643
981.340820	-40.679996	1867.441162	1133.444946
981.710266	-63.034920	1877.106079	1123.199097
982.079773	-8.404421	1845.690552	1112.464111
982.449280	-20.816027	1843.273438	1036.296997
982.818604	-90.369354	1874.690063	1057.544067
983.187866	-55.582325	1840.856201	1072.681396
983.557129	-58.066463	1799.753784	1035.563599
983.926331	-28.264193	1816.680908	1045.821899
984.295471	-5.922522	1838.439209	1044.844849
984.664612	61.052021	1845.690552	1009.667725
985.033569	8.967220	1836.021973	1008.201538
985.402527	-100.312347	1693.274658	1000.626526
985.771362	-3.440592	1758.630615	982.051453
986.140259	-35.713303	1727.169556	953.935486
986.508911	33.775314	1785.242310	958.825623
986.877625	-5.922522	1669.055542	951.979004
987.246277	-15.851151	1710.223877	948.800049
987.614929	-53.098297	1547.848267	968.361206
987.983459	-13.368803	1635.135986	956.625305
988.351807	-38.196598	1593.928711	944.153198
988.720215	-60.550571	1593.928711	930.455933
989.088623	-30.747169	1601.202271	912.352173
989.456909	-25.781321	1673.899658	926.052673
989.825012	-70.488464	1586.654785	915.043274
990.193115	-115.229988	1579.379883	935.348206
990.561279	8.967220	1499.313232	912.107300
990.929321	-112.743393	1557.551514	887.635010
991.297302	-15.851151	1470.177856	884.453186
991.665100	4.004435	1555.125977	883.718506
992.033020	-33.230251	1501.740723	870.743713
992.400818	-10.886559	1426.453979	867.316101
992.768494	46.175343	1382.705444	861.439941
993.136047	-53.098297	1426.453979	831.070679
993.503723	-95.340569	1458.034668	862.174561
993.871277	-110.257050	1562.402832	853.114502
994.238770	-58.066463	1407.013062	869.519958
994.606140	-35.713303	1441.031250	847.481384
994.973450	-0.958767	1380.274170	817.351501
995.340759	6.485948	1426.453979	859.236084
995.708008	-55.582325	1292.698730	800.198181
996.075195	-50.614506	1482.318848	793.826050
996.442200	23.853350	1292.698730	801.668640
996.809265	-60.550571	1380.274170	785.247009
997.176270	51.134735	1244.001831	733.014771
997.543152	18.891678	1321.902100	756.806274
997.910095	-48.130684	1280.527588	740.373962
998.276733	-50.614506	1214.768677	741.109558
998.643494	41.215668	1205.021729	747.486877
999.010193	-35.713303	1185.523804	726.145569
999.376831	-5.922522	1261.049438	721.238770
999.743286	-30.747169	1183.086182	733.505493
1000.109802	-50.614506	1224.514282	716.822205
1000.476257	-115.229988	1153.828735	734.486694
1000.842651	-72.973236	1195.273193	709.460205
1001.208923	-20.816027	1292.698730	676.077637
1001.575134	-72.973236	1105.040283	706.761047
1001.941284	-33.230251	1144.073608	677.305420
1002.307434	6.485948	1183.086182	666.992615
1002.673523	-30.747169	1158.705688	660.608032
1003.039429	-50.614506	1190.398560	659.871521
1003.405334	-75.458122	1190.398560	658.397949
1003.771179	-33.230251	1148.951294	644.889221
1004.137024	-35.713303	1034.239136	662.572815
1004.502808	-65.519371	1083.075073	664.291504
1004.868408	-43.163361	1048.893311	631.623657
1005.234009	48.655090	1041.566528	623.269775
1005.599609	-15.851151	1065.986206	617.863892
1005.965149	-38.196598	1136.756592	598.201843
1006.330444	-100.312347	1063.544556	614.914856
1006.695862	-65.519371	987.814209	584.927246
1007.061218	-90.369354	1007.365234	571.403320
1007.426453	-20.816027	958.477844	594.760376
1007.791626	-105.284424	1019.582031	596.235413
1008.156677	-105.284424	965.813171	563.534119
1008.521729	-3.440592	1019.582031	551.728027
1008.886780	-45.646973	1039.124146	536.967224
1009.251709	-135.126251	1007.365234	560.090881
1009.616577	-45.646973	872.843506	550.252014
1009.981384	-3.440592	938.913391	573.862671
1010.346130	-13.368803	899.768616	533.768860
1010.710754	-82.913254	1012.252197	521.219055
1011.075439	-28.264193	931.575562	533.276611
1011.439941	-15.851151	941.359314	532.538696
1011.804443	68.489105	902.215820	529.585876
1012.168884	-10.886559	889.978760	518.019653
1012.533325	-40.679996	902.215820	518.757996
1012.897522	-35.713303	816.512634	458.434631
1013.261780	-30.747169	863.050171	483.309296
1013.626038	-53.098297	870.395264	491.927094
1013.990112	-72.973236	892.426331	489.218506
1014.354187	33.775314	821.412659	467.301941
1014.718140	13.929725	784.653076	463.114410
1015.082153	8.967220	801.810059	468.040863
1015.446045	-72.973236	845.908386	452.029205
1015.809937	-65.519371	811.612061	452.029205
1016.173523	-58.066463	735.609192	437.492920
1016.537170	4.004435	789.555298	448.580627
1016.900879	-63.034920	772.395264	437.739014
1017.264404	-80.428055	738.062256	419.255493
1017.627991	-20.816027	666.888855	434.042755
1017.991333	58.572922	814.062378	404.465057
1018.354675	-13.368803	730.703064	457.695557
1018.718018	-18.333467	765.039795	424.184784
1019.081299	-102.798264	691.439819	399.780334
1019.444397	-3.440592	637.415527	428.128479
1019.807495	-58.066463	728.249756	404.218353
1020.170593	-33.230251	644.785156	382.272186
1020.533691	-63.034920	696.348999	384.491913
1020.896606	4.004435	684.075562	375.613129
1021.259460	-82.913254	580.889099	393.369446
1021.622253	-72.973236	585.806213	382.025787
1021.985046	-8.404421	588.264709	377.832947
1022.347778	-100.312347	711.074280	360.812073
1022.710327	4.004435	610.387146	356.864594
1023.072876	-65.519371	595.639771	337.617157
1023.435364	-95.340569	588.264709	346.994781
1023.797852	-130.151474	605.471619	355.384155
1024.160278	28.814472	649.697815	365.499390
1024.522461	-87.883835	625.131287	351.930084
1024.884766	-20.816027	622.674133	342.306213
1025.246948	-8.404421	566.135132	325.275757
1025.609131	-33.230251	543.997864	325.029144
1025.971069	-45.646973	489.853180	339.344757
1026.333130	-40.679996	553.837402	337.370331
1026.694946	-5.922522	573.512390	328.978455
1027.056885	1.522819	588.264709	298.363678
1027.418823	-25.781321	607.929443	295.400269
1027.780396	-50.614506	568.594116	306.265808
1028.142090	-80.428055	598.097961	307.747284
1028.503784	36.255444	566.135132	284.285767
1028.865479	-90.369354	450.446808	311.204010
1029.226807	-33.230251	563.675781	279.839325
1029.588135	-60.550571	499.700867	259.085571
1029.949707	18.891678	415.946594	300.832947
1030.310913	-10.886559	502.162628	270.451660
1030.672241	-0.958767	558.756775	284.532684
1031.033325	-30.747169	593.181519	272.675201
1031.394531	-48.130684	430.734924	286.755737
1031.755493	-38.196598	467.690033	261.309479
1032.116577	1.522819	447.983093	246.481552
1032.477417	-85.398422	378.961670	262.792145
1032.838257	-72.973236	443.055634	260.568542
1033.199097	-20.816027	435.663330	244.010132
1033.559937	-112.743393	462.764038	256.367310
1033.920654	-82.913254	529.235657	280.580322
1034.281128	-5.922522	512.008728	234.369659
1034.641724	-38.196598	519.392090	241.538467
1035.002197	-20.816027	425.805878	221.761017
1035.362671	-55.582325	428.270447	248.705933
1035.722900	-20.816027	411.016693	223.491669
1036.083252	-15.851151	472.615875	236.100357
1036.443481	-35.713303	341.954956	226.211075
1036.803711	-35.713303	423.341187	239.560669
1037.163940	-85.398422	406.086090	221.760757
1037.523804	-82.913254	376.495209	217.309967
1037.883789	-45.646973	359.227295	206.181595
1038.243774	21.372566	396.224091	202.471466
1038.603638	-23.298689	319.740448	201.482162
1038.963257	-20.816027	329.614532	210.880554
1039.323120	8.967220	381.427795	195.298233
1039.682861	-70.488464	359.227295	205.934357
>>>>>End Processed Spectral Data<<<<<
