Jaz Data File
++++++++++++++++++++++++++++++++++++
Date: Thu Dec 04 19:11:38 2014
User: jaz
Dark Spectrum Present: Yes
Reference Spectrum Present: Yes
Processed Spectrum Present: No
Spectrometers: JAZA2310
Integration Time (usec): 114000 (JAZA2310)
Spectra Averaged: 1 (JAZA2310)
Boxcar Smoothing: 0 (JAZA2310)
Correct for Electrical Dark: Yes (JAZA2310)
Strobe/Lamp Enabled: No (JAZA2310)
Correct for Detector Non-linearity: Yes (JAZA2310)
Correct for Stray Light: No (JAZA2310)
Number of Pixels in Processed Spectrum: 2048
>>>>>Begin Processed Spectral Data<<<<<
W	D	R	S
188.301102	0.000000	0.000000	0.000000
188.764923	0.000000	0.000000	0.000000
189.228699	-354.276611	-194.573532	-72.916748
189.692459	-304.355591	-129.869019	-85.342049
190.156158	-301.860840	-157.234970	-43.106899
190.619812	-271.931030	-216.988495	-147.508270
191.083435	266.640839	58.854481	28.870867
191.547043	-30.577681	-23.016603	-20.759584
192.010590	-5.753106	-50.332157	28.870867
192.474091	-0.789500	29.096306	18.948080
192.937561	31.464254	-25.499361	-35.656849
193.401001	182.576630	123.279907	4.060853
193.864410	274.052643	165.367264	71.024147
194.327759	293.813599	86.120010	18.948080
194.791077	63.700367	81.163513	-5.866095
195.254349	-5.753106	-30.465185	31.351336
195.717575	33.944618	100.986771	38.791992
196.180786	14.098948	-23.016603	-50.558037
196.643951	-30.577681	66.291840	4.060853
197.107071	14.098948	1.804648	23.909748
197.570145	76.094177	88.597832	31.351336
198.033203	-33.060757	48.936829	120.578278
198.496216	19.061022	-35.431164	-5.866095
198.959167	63.700367	34.057125	46.231720
199.422089	-20.646566	6.767753	1.579239
199.884979	-87.714317	1011.141296	36.311832
200.347855	31.464254	3790.981689	6.542363
200.810654	110.783455	3776.775146	-38.140141
201.273422	-10.717264	3866.716797	-23.242245
201.736160	404.853394	4093.602295	-48.074219
202.198853	76.094177	3689.125732	-58.009991
202.661514	128.120605	3840.689209	13.986133
203.124130	-82.743614	3587.171631	4.060853
203.586700	348.124084	3828.856445	-50.558037
204.049240	264.169952	3741.250732	-23.242245
204.511734	-10.717264	3648.830322	18.948080
204.974197	46.344608	3663.054443	-72.916748
205.436615	-15.681705	3684.386475	-45.590508
205.899002	162.780045	3717.560547	-15.794714
206.361343	93.441315	3596.659912	31.351336
206.823654	125.644135	3570.564697	-23.242245
207.285919	224.622910	3693.865723	-65.462891
207.748123	24.022545	3591.915771	1.579239
208.210327	4.173823	3580.054688	-43.106899
208.672485	-28.094847	3534.969971	-100.255829
209.134583	207.313156	3779.143311	-53.041824
209.596649	-57.896896	3698.605225	1.579239
210.058670	-55.412766	3783.878418	-8.348126
210.520676	-57.896896	3703.344482	-85.342049
210.982635	-23.129223	3772.038818	-48.074219
211.444534	43.864761	3781.510742	21.428967
211.906403	360.460754	3911.659912	-40.623535
212.368240	271.582306	3878.546143	-50.558037
212.830048	31.464254	3660.683594	21.428967
213.291779	214.732346	3795.716797	-58.009991
213.753494	-10.717264	3930.576904	-30.690720
214.215179	-18.164152	3736.513184	-28.207745
214.676819	-80.258423	3734.143799	-102.741875
215.138412	-0.789500	3814.654541	-18.277029
215.599960	53.783257	3800.451416	-33.173798
216.061493	11.617891	3840.689209	-102.741875
216.522949	175.153564	3892.738770	36.311832
216.984406	-3.271183	3958.947021	-40.623535
217.445801	58.742020	3951.855469	-45.590508
217.907166	187.524841	3994.398682	-65.462891
218.368484	128.120605	4006.213867	51.190975
218.829773	46.344608	4055.821533	-62.978439
219.291031	61.221245	3947.127197	-102.741875
219.752228	90.963425	3958.947021	-23.242245
220.213379	125.644135	4001.488037	61.108383
220.674500	-110.087334	3793.348877	-72.916748
221.135574	51.303989	3772.038818	-95.284058
221.596634	-97.656723	3890.373779	-95.284058
222.057648	14.098948	3847.788330	-43.106899
222.518600	-77.773476	3708.083496	-60.494091
222.979553	-52.928879	3843.055420	-115.173447
223.440430	189.998520	3989.672852	-45.590508
223.901276	175.153564	3906.929932	-20.759584
224.362076	-75.288498	3869.083252	-25.725010
224.822845	-97.656723	3817.021484	-60.494091
225.283569	71.136856	3764.935059	-82.856758
225.744278	-20.646566	3866.716797	-25.725010
226.204910	115.737511	3999.124756	4.060853
226.665512	-45.477573	3895.104248	9.023634
227.126114	16.580038	3885.642822	-53.041824
227.586639	81.051094	3958.947021	13.986133
228.047119	48.824348	4039.288086	-38.140141
228.507568	133.073242	3958.947021	-62.978439
228.967972	-8.235133	3859.619141	-67.947449
229.428345	14.098948	4058.183105	-45.590508
229.888687	31.464254	3906.929932	28.870867
230.348984	-8.235133	3954.219238	-87.827324
230.809219	-3.271183	3911.659912	-75.401619
231.269440	-30.577681	3928.212891	-10.830128
231.729614	-72.803627	3857.253418	1.579239
232.189758	71.136856	3949.491211	-53.041824
232.649841	167.729858	3992.035889	-55.525852
233.109894	6.655193	3925.847900	21.428967
233.569901	227.095383	4119.569336	-10.830128
234.029892	261.698975	4105.406250	-30.690720
234.489822	229.567749	4053.459473	-28.207745
234.949707	-5.753106	3904.564697	-65.462891
235.409561	214.732346	3984.946533	-5.866095
235.869385	78.572685	3999.124756	-115.173447
236.329163	-5.753106	3859.619141	-35.656849
236.788895	-152.371277	3951.855469	-25.725010
237.248581	95.919113	3899.834229	-60.494091
237.708237	150.404022	3977.855957	-48.074219
238.167847	1.692214	4093.602295	-40.623535
238.627441	28.983788	4018.027344	11.504935
239.086960	31.464254	3958.947021	-70.431976
239.546463	189.998520	4124.289551	9.023634
240.005920	73.615570	4039.288086	-70.431976
240.465332	-33.060757	3961.311035	-10.830128
240.924698	41.384811	4079.436035	21.428967
241.384033	-35.543938	3932.941406	13.986133
241.843338	-65.349785	4020.389404	-33.173798
242.302597	-60.381130	4136.089844	16.467226
242.761810	313.568329	4001.488037	-3.384167
243.220993	73.615570	3940.034912	-82.856758
243.680115	71.136856	4022.752197	-13.312368
244.139221	-50.444962	3817.021484	13.986133
244.598282	41.384811	3809.920410	-5.866095
245.057297	-20.646566	3984.946533	9.023634
245.516266	93.441315	3904.564697	18.948080
245.975189	-107.600967	4119.569336	26.390291
246.434082	-112.573807	3885.642822	-20.759584
246.892944	-50.444962	3895.104248	-40.623535
247.351761	-13.199366	3911.659912	-13.312368
247.810516	399.922363	4119.569336	-28.207745
248.269272	-20.646566	3880.911621	1.579239
248.727951	271.582306	4051.097900	53.670513
249.186600	-15.681705	3916.389160	21.428967
249.645218	-38.027088	3790.981689	6.542363
250.103790	66.179390	3890.373779	-0.902345
250.562317	-100.142662	3914.024414	-40.623535
251.020813	-55.412766	3980.219727	-40.623535
251.479279	-97.656723	3854.886719	-35.656849
251.937668	46.344608	4020.389404	-13.312368
252.396057	234.512177	3883.277100	-120.146805
252.854385	11.617891	3831.222900	36.311832
253.312683	170.204620	4069.990479	9.023634
253.770920	68.658310	3918.754150	18.948080
254.229126	-52.928879	3904.564697	-65.462891
254.687302	-72.803627	3776.775146	-112.686867
255.145432	-142.419296	3790.981689	6.542363
255.603500	-102.628700	3895.104248	-70.431976
256.061584	58.742020	3982.582764	18.948080
256.519592	-5.753106	3878.546143	-77.886475
256.977570	-105.114853	4036.925781	-18.277029
257.435455	-72.803627	3947.127197	-92.798462
257.893372	24.022545	4027.476563	-10.830128
258.351196	24.022545	3928.212891	-30.690720
258.808990	81.051094	4072.352295	-25.725010
259.266754	-164.813736	4100.685059	-30.690720
259.724487	488.622070	4162.046875	-45.590508
260.182190	157.829834	4010.938721	-0.902345
260.639832	4.173823	4039.288086	9.023634
261.097443	-102.628700	3814.654541	-25.725010
261.554993	66.179390	3958.947021	-5.866095
262.012512	110.783455	4173.843262	-90.312836
262.469971	162.780045	3951.855469	-10.830128
262.927429	90.963425	4098.323730	11.504935
263.384827	-5.753106	4110.126953	-67.947449
263.842194	43.864761	4020.389404	-20.759584
264.299530	-38.027088	4140.810059	56.149952
264.756805	-97.656723	3973.129395	-18.277029
265.214050	66.179390	3987.309570	41.272049
265.671234	318.506073	4069.990479	-18.277029
266.128387	6.655193	4058.183105	-18.277029
266.585510	-152.371277	4140.810059	-70.431976
267.042572	56.262688	4140.810059	-45.590508
267.499573	63.700367	4159.687012	-23.242245
267.956604	274.052643	4225.732422	-65.462891
268.413574	399.922363	4166.766113	-33.173798
268.870483	214.732346	4154.968750	-13.312368
269.327362	-42.993977	4015.664307	23.909748
269.784180	323.443481	4048.735840	-28.207745
270.240936	291.343811	4254.025391	-30.690720
270.697693	-82.743614	4157.328125	-10.830128
271.154419	-8.235133	4053.459473	56.149952
271.611053	-172.280457	4067.629395	-48.074219
272.067688	244.399582	4100.685059	-38.140141
272.524292	-25.611982	3949.491211	13.986133
272.980835	115.737511	4036.925781	13.986133
273.437347	152.879486	4084.158447	-3.384167
273.893799	-57.896896	3947.127197	-107.714157
274.350250	14.098948	4119.569336	-20.759584
274.806610	-42.993977	4095.963135	38.791992
275.262939	274.052643	4206.866699	1.579239
275.719238	145.452805	4067.629395	-40.623535
276.175507	-13.199366	4154.968750	-5.866095
276.631714	192.472382	4091.241211	-13.312368
277.087891	83.529396	4100.685059	13.986133
277.544067	-52.928879	3937.670166	16.467226
278.000122	-112.573807	4069.990479	16.467226
278.456177	83.529396	4277.597656	36.311832
278.912201	63.700367	4192.714844	31.351336
279.368164	-95.171028	4013.301758	-20.759584
279.824097	-92.685310	3951.855469	11.504935
280.279968	56.262688	3918.754150	-10.830128
280.735840	26.503218	3843.055420	-15.794714
281.191620	-40.510479	3963.674805	-60.494091
281.647400	16.580038	4169.125000	-0.902345
282.103149	105.828987	4152.608887	-20.759584
282.558838	192.472382	4209.224609	26.390291
283.014465	-3.271183	4176.202148	-13.312368
283.470062	33.944618	4110.126953	-62.978439
283.925629	113.260536	4003.850586	-30.690720
284.381134	-45.477573	4034.563721	-112.686867
284.836639	-8.235133	4190.355957	-20.759584
285.292053	157.829834	4171.484375	-20.759584
285.747467	-20.646566	4124.289551	-0.902345
286.202820	-174.769485	4112.487793	23.909748
286.658142	31.464254	4103.045410	-25.725010
287.113434	-90.199692	4209.224609	-0.902345
287.568634	56.262688	4062.906250	21.428967
288.023804	222.150620	4312.945313	-137.557129
288.478973	-45.477573	4039.288086	-25.725010
288.934113	-10.717264	4228.090820	-38.140141
289.389130	19.061022	4020.389404	-43.106899
289.844208	-82.743614	4107.766602	-40.623535
290.299164	-35.543938	4150.249512	-45.590508
290.754089	-72.803627	4395.381348	-105.227890
291.208984	11.617891	4268.169434	-102.741875
291.663879	189.998520	4407.152832	-72.916748
292.118683	-38.027088	4197.432129	11.504935
292.573456	93.441315	4289.381348	-50.558037
293.028198	16.580038	4329.437500	-65.462891
293.482849	-62.865475	4312.945313	36.311832
293.937561	-72.803627	4282.311523	-62.978439
294.392151	614.073303	4430.691895	-62.978439
294.846741	207.313156	4567.122070	-90.312836
295.301239	-8.235133	4324.725586	28.870867
295.755737	11.617891	4228.090820	-30.690720
296.210175	-87.714317	4289.381348	-60.494091
296.664581	19.061022	4374.188965	4.060853
297.118958	-65.349785	4246.953125	-53.041824
297.573242	-105.114853	4279.954102	-0.902345
298.027557	68.658310	4407.152832	-18.277029
298.481812	14.098948	4480.107910	-43.106899
298.935974	4.173823	4473.050293	-58.009991
299.390137	261.698975	4541.260254	-30.690720
299.844238	1.692214	4423.630371	-18.277029
300.298340	-3.271183	4418.922852	-8.348126
300.752350	-67.834335	4430.691895	-25.725010
301.206360	120.690887	4505.984863	-13.312368
301.660278	-18.164152	4470.697754	9.023634
302.114197	-100.142662	4378.898926	-28.207745
302.568054	-28.094847	4463.638672	-92.798462
303.021881	43.864761	4696.343262	16.467226
303.475677	123.167564	4578.875488	-137.557129
303.929413	-77.773476	4621.177734	-87.827324
304.383118	301.222443	4872.317871	-53.041824
304.836761	46.344608	4543.611328	-10.830128
305.290375	244.399582	4729.212402	-90.312836
305.743958	-127.494621	4522.447266	28.870867
306.197510	-142.419296	4543.611328	-72.916748
306.650970	152.879486	4703.387695	-30.690720
307.104431	68.658310	4616.479004	-120.146805
307.557800	264.169952	4715.126953	9.023634
308.011169	16.580038	4755.031250	4.060853
308.464508	16.580038	4534.205566	-10.830128
308.917755	-28.094847	4769.112305	18.948080
309.371063	9.136594	4654.068848	1.579239
309.824219	-5.753106	4830.108398	78.459862
310.277374	-110.087334	4724.518066	-72.916748
310.730499	-40.510479	4647.021973	-30.690720
311.183563	227.095383	4778.499023	58.629284
311.636597	36.424606	4771.458984	-28.207745
312.089569	-5.753106	4668.162598	-65.462891
312.542511	537.847229	5104.193359	13.986133
312.995422	-45.477573	4736.254883	56.149952
313.448273	86.007599	4912.167969	-62.978439
313.901093	98.396805	4785.537598	-30.690720
314.353882	88.485428	4874.662109	11.504935
314.806580	-28.094847	5017.586914	4.060853
315.259308	26.503218	4970.746094	-30.690720
315.711975	-92.685310	4869.973633	-43.106899
316.164581	325.911774	5092.493652	21.428967
316.617126	113.260536	4991.827148	36.311832
317.069672	-35.543938	4907.479980	-65.462891
317.522156	61.221245	5031.636230	-18.277029
317.974579	-50.444962	4980.116211	31.351336
318.427002	41.384811	4968.403809	-25.725010
318.879333	244.399582	5165.013672	33.831570
319.331665	-30.577681	4984.799805	-10.830128
319.783936	-110.087334	5094.833496	-65.462891
320.236176	-132.469025	5008.221191	-10.830128
320.688354	88.485428	4895.760742	33.831570
321.140503	-40.510479	5090.153809	11.504935
321.592651	71.136856	5146.303223	-28.207745
322.044647	100.874390	5174.368164	-28.207745
322.496704	-80.258423	5141.625488	9.023634
322.948639	-47.961151	5150.981445	-28.207745
323.400604	180.102371	5113.552734	-65.462891
323.852509	266.640839	5377.636230	-105.227890
324.304352	-8.235133	5083.132813	-65.462891
324.756165	135.549408	5115.892090	-23.242245
325.207916	-67.834335	5073.771973	-77.886475
325.659668	-20.646566	5113.552734	-50.558037
326.111328	123.167564	5244.500000	-33.173798
326.562988	88.485428	5342.615234	1.579239
327.014557	-40.510479	5256.184570	23.909748
327.466156	194.946136	5333.274414	38.791992
327.917664	-75.288498	5365.963379	-62.978439
328.369110	31.464254	5344.950195	85.894653
328.820557	14.098948	5442.981934	-23.242245
329.271942	-25.611982	5277.214355	98.284012
329.723297	-42.993977	5330.938965	-0.902345
330.174561	-52.928879	5316.926758	28.870867
330.625854	58.742020	5536.270996	-18.277029
331.077026	-159.836365	5300.575684	-0.902345
331.528229	110.783455	5545.596191	-8.348126
331.979370	9.136594	5517.619141	58.629284
332.430450	78.572685	5547.927246	61.108383
332.881500	-47.961151	5414.981934	-35.656849
333.332489	140.501175	5557.250977	-77.886475
333.783478	338.253052	5838.958984	56.149952
334.234406	-102.628700	5433.648926	4.060853
334.685303	41.384811	5622.498535	36.311832
335.136078	-197.176636	5524.613770	-23.242245
335.586914	38.904758	5524.613770	48.711464
336.037659	271.582306	5750.559570	38.791992
336.488342	-3.271183	5704.007813	6.542363
336.939026	-15.681705	5557.250977	-132.582260
337.389648	73.615570	5596.869141	-80.371559
337.840240	4.173823	5801.746582	-45.590508
338.290771	-38.027088	5762.195801	-67.947449
338.741272	68.658310	5897.082520	-13.312368
339.191681	133.073242	5911.027344	-10.830128
339.642120	177.628021	5692.367188	-43.106899
340.092468	130.596985	5859.886719	-28.207745
340.542816	-77.773476	5815.702148	16.467226
340.993103	56.262688	5827.332031	-45.590508
341.443329	-57.896896	5911.027344	-25.725010
341.893555	-112.573807	5748.232422	4.060853
342.343689	-13.199366	5825.005859	-70.431976
342.793793	-60.381130	5859.886719	4.060853
343.243866	-95.171028	5845.936035	-38.140141
343.693878	1.692214	5752.887695	-40.623535
344.143890	-42.993977	5741.251465	-25.725010
344.593842	271.582306	6024.854004	-13.312368
345.043732	135.549408	5952.854492	-40.623535
345.493591	204.840164	6189.601074	1.579239
345.943359	51.303989	5985.375977	-40.623535
346.393158	-23.129223	6147.855469	-62.978439
346.842896	21.541903	5943.560547	-38.140141
347.292542	-5.753106	6108.415527	-15.794714
347.742218	-30.577681	6205.831055	21.428967
348.191803	-152.371277	5983.053223	-43.106899
348.641357	-55.412766	6096.813477	-20.759584
349.090881	-23.129223	6166.410156	-48.074219
349.540314	-10.717264	6300.854004	-82.856758
349.989777	1.692214	6296.219727	-25.725010
350.439148	-57.896896	6414.321777	9.023634
350.888489	-164.813736	6263.780273	-62.978439
351.337799	103.351608	6372.651367	6.542363
351.787048	-65.349785	6256.828125	-62.978439
352.236267	6.655193	6416.636719	-15.794714
352.685425	-87.714317	6430.523438	11.504935
353.134552	-125.007500	6330.967773	-3.384167
353.583649	128.120605	6525.374512	-60.494091
354.032684	11.617891	6583.174805	-23.242245
354.481659	160.304993	6562.369629	4.060853
354.930634	93.441315	6650.189941	13.986133
355.379517	-40.510479	6534.623535	-90.312836
355.828430	41.384811	6737.949219	-35.656849
356.277222	-189.706650	6566.992676	-50.558037
356.726013	-95.171028	6610.910156	-3.384167
357.174774	38.904758	6731.023926	-65.462891
357.623444	73.615570	6597.042480	-43.106899
358.072113	-0.789500	6855.635742	-8.348126
358.520721	-142.419296	6804.882324	-58.009991
358.969299	-110.087334	6797.960449	-10.830128
359.417786	-82.743614	6862.555664	6.542363
359.866302	162.780045	7076.868652	56.149952
360.314697	-57.896896	7056.144531	-5.866095
360.763123	58.742020	7175.838379	-38.140141
361.211456	36.424606	7067.658203	-58.009991
361.659760	-52.928879	7076.868652	-13.312368
362.108032	48.824348	6963.995605	21.428967
362.556244	-18.164152	7198.843262	-10.830128
363.004456	-85.228912	7187.341309	1.579239
363.452576	36.424606	7295.420410	-3.384167
363.900696	-33.060757	7242.541992	4.060853
364.348663	31.464254	7378.143066	-40.623535
364.796722	-20.646566	7231.043457	-80.371559
365.244690	-105.114853	7198.843262	6.542363
365.692596	-97.656723	7396.518555	-30.690720
366.140472	-13.199366	7476.881836	-72.916748
366.588287	-40.510479	7655.797363	-33.173798
367.036102	-67.834335	7591.600098	-33.173798
367.483826	-127.494621	7577.838379	-105.227890
367.931549	48.824348	7715.382324	-45.590508
368.379181	78.572685	7653.505371	-13.312368
368.826843	-129.981827	7621.410156	43.751869
369.274384	-239.525284	7955.736328	-15.794714
369.721924	48.824348	8035.757813	-23.242245
370.169403	182.576630	8111.162109	56.149952
370.616821	73.615570	8106.593750	-95.284058
371.064270	-25.611982	8179.674316	43.751869
371.511566	-15.681705	8289.221680	-75.401619
371.958923	138.025208	8191.089355	-43.106899
372.406158	9.136594	8400.958008	-3.384167
372.853424	-92.685310	8496.659180	-110.200523
373.300568	100.874390	8353.083008	4.060853
373.747711	33.944618	8544.484375	-72.916748
374.194794	-80.258423	8508.047852	-30.690720
374.641846	-95.171028	8762.899414	53.670513
375.088898	33.944618	8717.425781	-97.769890
375.535828	145.452805	8865.162109	11.504935
375.982758	-23.129223	8624.156250	-33.173798
376.429596	98.396805	8960.539063	-28.207745
376.876465	33.944618	9114.818359	-38.140141
377.323242	-60.381130	9277.989258	-62.978439
377.769989	135.549408	9293.842773	28.870867
378.216675	-52.928879	9474.901367	-28.207745
378.663330	-18.164152	9384.401367	-55.525852
379.109985	-127.494621	9603.764648	41.272049
379.556519	325.911774	9964.875000	56.149952
380.003052	63.700367	9743.801758	-55.525852
380.449524	-23.129223	10027.977539	-53.041824
380.895996	-202.157120	10086.547852	-23.242245
381.342377	53.783257	10122.579102	-77.886475
381.788727	-0.789500	10352.080078	-5.866095
382.235046	-77.773476	10437.491211	-18.277029
382.681274	98.396805	11215.263672	-40.623535
383.127533	-100.142662	10953.445313	6.542363
383.573669	66.179390	11054.194336	56.149952
384.019836	95.919113	11257.741211	-92.798462
384.465912	-87.714317	11436.473633	-15.794714
384.911957	78.572685	11895.839844	-70.431976
385.357971	-57.896896	11650.700195	-33.173798
385.803925	-199.666885	12158.428711	-8.348126
386.249847	-112.573807	12438.403320	-28.207745
386.695679	135.549408	12691.356445	-3.384167
387.141541	-127.494621	13061.328125	-38.140141
387.587311	38.904758	13545.515625	28.870867
388.033051	-10.717264	13896.402344	48.711464
388.478729	-52.928879	14185.118164	21.428967
388.924408	-70.319000	14427.307617	-48.074219
389.369995	66.179390	15132.906250	-60.494091
389.815552	-120.033730	15501.594727	31.351336
390.261078	120.690887	16073.707031	-43.106899
390.706543	281.463837	16828.972656	4.060853
391.152008	-97.656723	17264.259766	-5.866095
391.597351	-82.743614	17933.302734	31.351336
392.042725	-40.510479	18503.851563	-60.494091
392.487976	-50.444962	19437.488281	21.428967
392.933289	-125.007500	20380.685547	-28.207745
393.378479	48.824348	21336.189453	-10.830128
393.823639	142.977036	22810.320313	-53.041824
394.268768	-92.685310	23618.724609	-35.656849
394.713837	204.840164	25063.224609	-0.902345
395.158905	-23.129223	26636.662109	33.831570
395.603851	-20.646566	28065.296875	83.416580
396.048798	-72.803627	29794.226563	73.502869
396.493683	120.690887	32328.125000	58.629284
396.938568	133.073242	34135.226563	150.291321
397.383392	222.150620	36392.785156	31.351336
397.828156	-82.743614	39107.964844	68.545326
398.272888	-122.520622	41530.125000	-13.312368
398.717560	-172.280457	45373.675781	28.870867
399.162201	9.136594	48148.972656	21.428967
399.606781	-100.142662	51945.371094	115.624748
400.051361	-30.577681	55644.160156	48.711464
400.495819	-120.033730	59622.964844	88.372757
400.940308	-75.288498	64549.027344	80.938271
401.384705	175.153564	69178.242188	170.091827
401.829102	78.572685	75173.015625	105.716347
402.273438	95.919113	80602.492188	75.981476
402.717682	-251.986755	80602.492188	189.886032
403.161926	-55.412766	80602.492188	212.146927
403.606110	-92.685310	80602.492188	182.463989
404.050293	9.136594	80602.492188	224.510498
404.494385	-154.859573	80602.492188	249.230331
404.938446	-199.666885	80602.492188	229.455338
405.382477	-169.791397	80602.492188	271.469696
405.826447	-0.789500	80602.492188	202.254211
406.270386	16.580038	80602.492188	370.216156
406.714233	118.214386	80602.492188	303.579315
407.158081	-15.681705	80602.492188	372.682861
407.601868	-137.444016	80602.492188	444.175293
408.045624	83.529396	80602.492188	454.030212
408.489319	68.658310	80602.492188	466.346527
408.933014	147.928452	80602.492188	498.358032
409.376617	28.983788	80602.492188	668.004761
409.820190	-5.753106	80602.492188	682.736145
410.263702	88.485428	80602.492188	739.177185
410.707184	4.173823	80602.492188	837.224365
411.150635	-20.646566	80602.492188	866.611328
411.594025	33.944618	80602.492188	873.956299
412.037384	-8.235133	80602.492188	1076.861206
412.480682	115.737511	80602.492188	1128.107666
412.923981	21.541903	80602.492188	1150.059570
413.367126	-23.129223	80602.492188	1174.442993
413.810333	-122.520622	80602.492188	1437.276611
414.253479	-42.993977	80602.492188	1529.540527
414.696533	81.051094	80602.492188	1604.728271
415.139587	-127.494621	80602.492188	1653.198608
415.582581	385.127167	80602.492188	1747.631470
416.025543	-20.646566	80602.492188	1832.285645
416.468414	-50.444962	80602.492188	1998.921753
416.911285	-139.931534	80602.492188	2210.968750
417.354065	372.795288	80602.492188	2355.250732
417.796875	-129.981827	80602.492188	2494.500977
418.239594	-187.216827	80602.492188	2604.789307
418.682281	98.396805	80602.492188	2822.582520
419.124908	-172.280457	80602.492188	2875.159912
419.567505	236.984253	80602.492188	3030.334961
420.010071	-142.419296	80602.492188	3299.515625
420.452545	-30.577681	80602.492188	3344.704590
420.895020	-179.748154	80602.492188	3586.956055
421.337372	1.692214	80602.492188	3866.502197
421.779785	241.927826	80602.492188	4131.155762
422.222107	382.660950	80602.492188	4366.910645
422.664368	-15.681705	80602.492188	4628.013672
423.106628	-42.993977	80602.492188	4773.592773
423.548798	-47.961151	80602.492188	4944.762695
423.990967	-18.164152	80602.492188	5253.635254
424.433044	9.136594	80602.492188	5449.769531
424.875092	26.503218	80602.492188	5564.031250
425.317078	-42.993977	80602.492188	5731.729980
425.759064	-75.288498	80602.492188	6050.182129
426.200989	-65.349785	80602.492188	6330.757324
426.642853	-30.577681	80602.492188	6582.964844
427.084686	157.829834	80602.492188	6846.200195
427.526459	48.824348	80602.492188	7143.415039
427.968201	26.503218	80602.492188	7318.195313
428.409912	-82.743614	80602.492188	7685.385254
428.851563	-13.199366	80602.492188	7932.657227
429.293121	33.944618	80602.492188	8227.405273
429.734711	-65.349785	80602.492188	8432.659180
430.176239	43.864761	80602.492188	8849.053711
430.617706	24.022545	80602.492188	9026.149414
431.059113	-117.546936	80602.492188	8958.063477
431.500488	-125.007500	80602.492188	9438.502930
431.941833	-149.883087	80602.492188	9867.709961
432.383087	-127.494621	80602.492188	9953.398438
432.824341	9.136594	80602.492188	10394.588867
433.265533	-117.546936	80602.492188	10917.405273
433.706726	-100.142662	80602.492188	10686.505859
434.147827	-45.477573	80602.492188	11246.359375
434.588867	-129.981827	80602.492188	11498.782227
435.029877	-52.928879	80602.492188	11766.423828
435.470825	-115.060249	80602.492188	12147.108398
435.911804	-35.543938	80602.492188	12371.579102
436.352661	-80.258423	80602.492188	12731.066406
436.793518	38.904758	80602.492188	13030.136719
437.234283	58.742020	80602.492188	13253.605469
437.675049	-149.883087	80602.492188	13521.020508
438.115723	-77.773476	80602.492188	14013.051758
438.556396	-47.961151	80602.492188	14134.252930
438.997040	-0.789500	80602.492188	14719.657227
439.437561	140.501175	80602.492188	14658.091797
439.878113	-65.349785	80602.492188	15031.690430
440.318573	9.136594	80602.492188	15303.932617
440.759033	155.354568	80602.492188	15948.626953
441.199341	33.944618	80602.492188	16483.000000
441.639709	-276.918152	80602.492188	16220.259766
442.079956	-25.611982	80602.492188	16802.519531
442.520264	-212.119568	80602.492188	17180.957031
442.960510	19.061022	80602.492188	17266.250000
443.400604	16.580038	80602.492188	17602.988281
443.840759	-117.546936	80602.492188	17611.732422
444.280762	-52.928879	80602.492188	17941.849609
444.720825	-90.199692	80602.492188	18011.804688
445.160767	19.061022	80602.492188	18182.312500
445.600739	-172.280457	80602.492188	18536.443359
446.040558	-67.834335	80602.492188	18427.142578
446.480438	-38.027088	80602.492188	18158.265625
446.920258	-33.060757	80602.492188	18438.072266
447.359955	-18.164152	80602.492188	18361.562500
447.799713	-67.834335	80602.492188	18512.396484
448.239319	-154.859573	80602.492188	17930.919922
448.678955	-38.027088	80602.492188	17869.708984
449.118500	-62.865475	80602.492188	18228.216797
449.558014	-70.319000	80602.492188	17524.277344
449.997498	-102.628700	80602.492188	17434.630859
450.436951	-152.371277	80602.492188	16929.412109
450.876343	-149.883087	80602.492188	17030.039063
451.315674	103.351608	80602.492188	16134.842773
451.754974	-107.600967	80602.492188	15939.863281
452.194183	24.022545	80602.492188	15551.844727
452.633392	-0.789500	80602.492188	15104.163086
453.072510	24.022545	80602.492188	14680.081055
453.511688	-142.419296	80602.492188	14250.992188
453.950684	6.655193	80602.492188	13408.346680
454.389740	162.780045	80602.492188	13185.041992
454.828735	115.737511	80602.492188	12901.701172
455.267639	-45.477573	80602.492188	12364.916016
455.706543	63.700367	80602.492188	11699.553711
456.145325	9.136594	80602.492188	11478.691406
456.584137	414.714111	80602.492188	10892.761719
457.022858	-182.237640	80602.492188	10590.009766
457.461578	-28.094847	80602.492188	10162.901367
457.900208	-10.717264	80602.492188	9716.503906
458.338867	-33.060757	80602.492188	9393.247070
458.777405	-75.288498	80602.492188	9037.495117
459.215912	53.783257	80602.492188	8612.570313
459.654388	123.167564	80602.492188	8373.395508
460.092773	-80.258423	80602.492188	8227.405273
460.531189	-97.656723	80602.492188	7687.676758
460.969513	-85.228912	80602.492188	7802.210449
461.407806	14.098948	80602.492188	7384.825684
461.846008	-42.993977	80602.492188	7237.734375
462.284241	-127.494621	80602.492188	6949.958984
462.722351	-152.371277	80602.492188	6640.739258
463.160461	-110.087334	80602.492188	6813.902344
463.598541	-162.324997	80602.492188	6409.482422
464.036530	-3.271183	80602.492188	6235.758301
464.474518	-85.228912	80602.492188	6330.757324
464.912384	-162.324997	80602.492188	5989.810059
465.350281	-50.444962	80602.492188	5722.418945
465.788086	43.864761	80602.492188	5543.052734
466.225891	-90.199692	80602.492188	5440.436523
466.663605	-139.931534	80602.492188	5241.950684
467.101318	43.864761	80602.492188	5008.007324
467.539001	-82.743614	80602.492188	4900.235840
467.976563	90.963425	80602.492188	5026.740723
468.414124	-77.773476	80602.492188	4787.670898
468.851593	48.824348	80602.492188	4679.692383
469.289063	16.580038	80602.492188	4618.615234
469.726440	-85.228912	80602.492188	4376.330566
470.163849	-122.520622	80602.492188	4275.026367
470.601135	-47.961151	80602.492188	4371.620605
471.038422	-120.033730	80602.492188	4190.142090
471.475677	56.262688	80602.492188	3982.368164
471.912811	-222.083740	80602.492188	3909.079834
472.350006	-52.928879	80602.492188	3769.456055
472.787048	-224.575104	80602.492188	3759.983398
473.224121	66.179390	80602.492188	3686.541016
473.661072	-97.656723	80602.492188	3572.721436
474.098053	-20.646566	80602.492188	3435.021973
474.534943	-115.060249	80602.492188	3389.873535
474.971802	-162.324997	80602.492188	3394.626953
475.408630	-10.717264	80602.492188	3289.999512
475.845367	-134.956467	80602.492188	3118.554932
476.282104	-85.228912	80602.492188	3135.236084
476.718750	-147.395142	80602.492188	3070.878174
477.155426	192.472382	80602.492188	3018.407227
477.591949	-42.993977	80602.492188	2965.907715
478.028503	66.179390	80602.492188	3004.092041
478.464966	-67.834335	80602.492188	2970.681641
478.901428	21.541903	80602.492188	2920.544434
479.337860	-127.494621	80602.492188	2836.924316
479.774170	-72.803627	80602.492188	2927.708252
480.210510	-100.142662	80602.492188	2844.094971
480.646698	-60.381130	80602.492188	2865.602295
481.082947	-72.803627	80602.492188	2736.482666
481.519073	14.098948	80602.492188	2836.924316
481.955200	-197.176636	80602.492188	2681.433594
482.391266	-77.773476	80602.492188	2645.514404
482.827301	-77.773476	80602.492188	2760.407471
483.263306	-25.611982	80602.492188	2669.461914
483.699188	118.214386	80602.492188	2695.797363
484.135101	160.304993	80602.492188	2638.329102
484.570923	24.022545	80602.492188	2645.514404
485.006744	-80.258423	80602.492188	2659.884033
485.442413	-105.114853	80602.492188	2592.808105
485.878174	353.059143	80602.492188	2621.560791
486.313782	-60.381130	80602.492188	2580.825195
486.749390	26.503218	80602.492188	2633.538330
487.184998	-70.319000	80602.492188	2554.456787
487.620453	-42.993977	80602.492188	2669.461914
488.055939	-125.007500	80602.492188	2640.724121
488.491333	-256.972229	80602.492188	2573.634277
488.926727	-97.656723	80602.492188	2611.977295
489.362030	41.384811	80602.492188	2585.618164
489.797302	-157.347855	80602.492188	2655.094482
490.232513	63.700367	80602.492188	2748.445801
490.667755	-147.395142	80602.492188	2896.660645
491.102905	115.737511	80602.492188	2882.327148
491.537964	-117.546936	80602.492188	2889.494385
491.973022	86.007599	80602.492188	2956.359619
492.407990	147.928452	80602.492188	2942.035156
492.842957	95.919113	80602.492188	3089.951904
493.277832	-142.419296	80602.492188	3218.600342
493.712738	-117.546936	80602.492188	3235.264648
494.147491	-40.510479	80602.492188	3313.788330
494.582275	-139.931534	80602.492188	3368.480713
495.017029	180.102371	80602.492188	3546.620605
495.451660	-25.611982	80602.492188	3594.072266
495.886292	-40.510479	80602.492188	3714.976318
496.320831	-8.235133	80602.492188	3608.303711
496.755402	103.351608	80602.492188	3887.792969
497.189850	-115.060249	80602.492188	4001.273438
497.624298	93.441315	80602.492188	3932.726563
498.058655	28.983788	80602.492188	4227.876465
498.493042	-35.543938	80602.492188	4192.500488
498.927368	-65.349785	80602.492188	4414.000977
499.361572	264.169952	80602.492188	4472.836426
499.795807	81.051094	80602.492188	4649.157715
500.229919	51.303989	80602.492188	4949.448730
500.664063	48.824348	80602.492188	4968.190918
501.098083	-144.907166	80602.492188	5244.288086
501.532104	-20.646566	80602.492188	5349.408203
501.966064	-23.129223	80602.492188	5508.080078
502.399994	9.136594	80602.492188	5545.384277
502.833893	-35.543938	80602.492188	5785.250977
503.267700	-157.347855	80602.492188	5892.222168
503.701477	16.580038	80602.492188	6059.467773
504.135193	-72.803627	80602.492188	6143.005371
504.568909	-65.349785	80602.492188	6499.723145
505.002502	-33.060757	80602.492188	6522.851563
505.436127	6.655193	80602.492188	6770.057129
505.869629	16.580038	80602.492188	6906.160156
506.303162	46.344608	80602.492188	7200.934570
506.736603	-50.444962	80602.492188	7426.165527
507.169983	-80.258423	80602.492188	7469.787109
507.603363	-117.546936	80602.492188	7692.260742
508.036621	-75.288498	80602.492188	8284.451172
508.469940	21.541903	80602.492188	8195.449219
508.903107	-10.717264	80602.492188	8293.577148
509.336304	-184.727112	80602.492188	8457.724609
509.769379	-75.288498	80602.492188	8785.425781
510.202484	76.094177	80602.492188	8958.063477
510.635529	-47.961151	80602.492188	8919.464844
511.068481	-97.656723	80602.492188	9524.447266
511.501434	125.644135	80602.492188	9377.406250
511.934265	-117.546936	80602.492188	9666.818359
512.367126	217.205200	80602.492188	10093.101563
512.799927	-144.907166	80602.492188	9892.519531
513.232605	-70.319000	80602.492188	10075.082031
513.665344	-42.993977	80602.492188	10711.180664
514.097961	33.944618	80602.492188	10856.911133
514.530579	-42.993977	80602.492188	11085.323242
514.963135	-50.444962	80602.492188	11029.369141
515.395691	90.963425	80602.492188	11208.352539
515.828064	-60.381130	80602.492188	11485.387695
516.260498	-127.494621	80602.492188	11788.708984
516.692871	-75.288498	80602.492188	11641.576172
517.125183	286.404144	80602.492188	11986.919922
517.557373	9.136594	80602.492188	12162.672852
517.989624	185.050781	80602.492188	12422.659180
518.421753	-10.717264	80602.492188	12440.422852
518.853943	-177.258774	80602.492188	12529.214844
519.286072	-8.235133	80602.492188	12864.040039
519.718018	26.503218	80602.492188	12945.999023
520.150024	-167.302444	80602.492188	13054.486328
520.581909	41.384811	80602.492188	13233.702148
521.013855	-147.395142	80602.492188	13227.067383
521.445679	-42.993977	80602.492188	13501.141602
521.877502	-90.199692	80602.492188	13766.059570
522.309204	-33.060757	80602.492188	13717.511719
522.740906	81.051094	80602.492188	14147.469727
523.172546	-52.928879	80602.492188	13911.637695
523.604187	-60.381130	80602.492188	14154.078125
524.035767	-13.199366	80602.492188	14072.557617
524.467224	-184.727112	80602.492188	14424.908203
524.898682	-18.164152	80602.492188	14396.294922
525.330078	-75.288498	80602.492188	14334.661133
525.761475	-120.033730	80602.492188	14730.648438
526.192749	-85.228912	80602.492188	14724.053711
526.624023	-40.510479	80602.492188	14642.698242
527.055237	-5.753106	80602.492188	14695.472656
527.486389	-62.865475	80602.492188	15058.047852
527.917542	28.983788	80602.492188	15029.495117
528.348572	11.617891	80602.492188	15080.007813
528.779663	-102.628700	80602.492188	15319.292969
529.210571	51.303989	80602.492188	15422.421875
529.641541	31.464254	80602.492188	15330.266602
530.072388	-25.611982	80602.492188	15374.153320
530.503235	103.351608	80602.492188	15507.977539
530.934082	-149.883087	80602.492188	15534.297852
531.364746	-117.546936	80602.492188	15314.904297
531.795532	-42.993977	80602.492188	15582.546875
532.226135	-70.319000	80602.492188	15764.529297
532.656738	-45.477573	80602.492188	15689.992188
533.087280	387.593353	80602.492188	15856.588867
533.517822	110.783455	80602.492188	15979.301758
533.948242	108.306274	80602.492188	15808.368164
534.378662	-102.628700	80602.492188	15955.199219
534.809082	38.904758	80602.492188	15981.495117
535.239319	90.963425	80602.492188	16082.272461
535.669617	38.904758	80602.492188	16137.033203
536.099792	-172.280457	80602.492188	16071.318359
536.529968	-192.196442	80602.492188	16524.589844
536.960083	-65.349785	80602.492188	16150.175781
537.390137	199.893356	80602.492188	16204.928711
537.820190	-62.865475	80602.492188	16165.507813
538.250183	-117.546936	80602.492188	16452.353516
538.680115	-164.813736	80602.492188	16150.175781
539.109985	481.234955	80602.492188	16461.109375
539.539795	46.344608	80602.492188	16373.540039
539.969543	-0.789500	80602.492188	16708.429688
540.399292	150.404022	80602.492188	16566.175781
540.828979	83.529396	80602.492188	16447.974609
541.258606	-33.060757	80602.492188	16528.966797
541.688171	1.692214	80602.492188	16454.542969
542.117737	-38.027088	80602.492188	16555.234375
542.547302	115.737511	80602.492188	16568.365234
542.976685	-142.419296	80602.492188	16579.308594
543.406128	95.919113	80602.492188	16684.357422
543.835388	-137.444016	80602.492188	16763.134766
544.264771	-132.469025	80602.492188	16496.134766
544.693970	-154.859573	80602.492188	16644.966797
545.123230	-62.865475	80602.492188	16629.646484
545.552307	-105.114853	80602.492188	16588.062500
545.981506	219.677948	80602.492188	16658.097656
546.410583	-18.164152	80602.492188	16607.761719
546.839539	-202.157120	80602.492188	16833.150391
547.268555	86.007599	80602.492188	16647.154297
547.697449	436.895416	80602.492188	16769.699219
548.126282	-33.060757	80602.492188	16723.748047
548.555054	-90.199692	80602.492188	16986.291016
548.983887	-65.349785	80602.492188	16485.189453
549.412598	11.617891	80602.492188	16693.109375
549.841309	222.150620	80602.492188	16577.121094
550.269958	-50.444962	80602.492188	16513.646484
550.698486	43.864761	80602.492188	16756.568359
551.127075	123.167564	80602.492188	16507.078125
551.555481	-82.743614	80602.492188	16601.197266
551.983948	-102.628700	80602.492188	16397.623047
552.412292	-33.060757	80602.492188	16653.718750
552.840698	167.729858	80602.492188	16833.150391
553.268860	-50.444962	80602.492188	16789.390625
553.697205	-65.349785	80602.492188	16511.455078
554.125366	189.998520	80602.492188	16767.509766
554.553467	-120.033730	80602.492188	16905.349609
554.981628	-13.199366	80602.492188	16693.109375
555.409607	58.742020	80602.492188	17027.851563
555.837646	-189.706650	80602.492188	16813.458984
556.265564	88.485428	80602.492188	17152.525391
556.693481	68.658310	80602.492188	17176.583984
557.121338	56.262688	80602.492188	16953.476563
557.549133	-55.412766	80602.492188	17001.601563
557.976929	-67.834335	80602.492188	16918.474609
558.404602	234.512177	80602.492188	17264.062500
558.832275	-5.753106	80602.492188	17209.388672
559.259888	-117.546936	80602.492188	17213.763672
559.687439	115.737511	80602.492188	17432.441406
560.114929	-142.419296	80602.492188	17349.347656
560.542419	-33.060757	80602.492188	17421.509766
560.969788	-30.577681	80602.492188	17364.656250
561.397156	-75.288498	80602.492188	17266.250000
561.824524	-42.993977	80602.492188	17290.304688
562.251770	11.617891	80602.492188	17176.583984
562.679016	-222.083740	80602.492188	17100.033203
563.106140	-40.510479	80602.492188	17366.841797
563.533264	160.304993	80602.492188	17086.910156
563.960327	-30.577681	80602.492188	16896.597656
564.387329	-33.060757	80602.492188	16957.851563
564.814331	-70.319000	80602.492188	16992.851563
565.241272	-177.258774	80602.492188	16717.181641
565.668213	-50.444962	80602.492188	16905.349609
566.094971	-47.961151	80602.492188	16524.589844
566.521790	-47.961151	80602.492188	16432.652344
566.948425	-167.302444	80602.492188	16563.988281
567.375183	-10.717264	80602.492188	16454.542969
567.801819	-38.027088	80602.492188	16347.264648
568.228394	-5.753106	80602.492188	16165.507813
568.654846	-47.961151	80602.492188	16196.169922
569.081421	123.167564	80602.492188	16211.500000
569.507874	-92.685310	80602.492188	15970.539063
569.934265	-38.027088	80602.492188	15959.583984
570.360596	-95.171028	80602.492188	15933.288086
570.786865	-100.142662	80602.492188	15562.809570
571.213074	-197.176636	80602.492188	15650.525391
571.639282	-129.981827	80602.492188	15928.905273
572.065430	51.303989	80602.492188	15608.862305
572.491516	-20.646566	80602.492188	15466.299805
572.917603	36.424606	80602.492188	15134.904297
573.343567	-132.469025	80602.492188	15148.078125
573.769531	-50.444962	80602.492188	15207.354492
574.195435	222.150620	80602.492188	15367.571289
574.621277	-70.319000	80602.492188	15159.056641
575.047119	36.424606	80602.492188	15084.399414
575.472839	-77.773476	80602.492188	14996.548828
575.898560	269.111633	80602.492188	14759.227539
576.324158	-112.573807	80602.492188	15075.614258
576.749817	58.742020	80602.492188	14717.458008
577.175293	-25.611982	80602.492188	14574.519531
577.600830	-132.469025	80602.492188	14691.075195
578.026306	180.102371	80602.492188	14523.922852
578.451721	66.179390	80602.492188	14523.922852
578.877136	-182.237640	80602.492188	14253.193359
579.302429	-8.235133	80602.492188	14323.654297
579.727661	140.501175	80602.492188	14211.349609
580.152832	-157.347855	80602.492188	14068.148438
580.578064	-45.477573	80602.492188	14125.439453
581.003113	-144.907166	80602.492188	14118.829102
581.428223	-85.228912	80602.492188	13885.174805
581.853271	51.303989	80602.492188	13971.167969
582.278198	53.783257	80602.492188	13721.927734
582.703125	-149.883087	80602.492188	13777.090820
583.127930	-47.961151	80602.492188	13821.211914
583.552795	160.304993	80602.492188	13717.511719
583.977539	-167.302444	80602.492188	13856.503906
584.402283	-184.727112	80602.492188	13571.814453
584.826965	-33.060757	80602.492188	13604.936523
585.251587	98.396805	80602.492188	13353.094727
585.676208	-75.288498	80602.492188	13313.304688
586.100647	-132.469025	80602.492188	13618.184570
586.525208	81.051094	80602.492188	13313.304688
586.949524	-110.087334	80602.492188	13231.490234
587.373962	6.655193	80602.492188	13105.391602
587.798218	-62.865475	80602.492188	13288.985352
588.222534	48.824348	80602.492188	12974.786133
588.646729	-139.931534	80602.492188	13187.253906
589.070984	-172.280457	80602.492188	12833.022461
589.495117	-169.791397	80602.492188	12906.130859
589.919128	21.541903	80602.492188	12673.415039
590.343201	86.007599	80602.492188	12380.463867
590.767151	-139.931534	80602.492188	12635.711914
591.191101	9.136594	80602.492188	12562.501953
591.614990	-8.235133	80602.492188	12671.198242
592.038818	-105.114853	80602.492188	12558.062500
592.462524	-152.371277	80602.492188	12173.791992
592.886292	-62.865475	80602.492188	12213.811523
593.310059	-13.199366	80602.492188	12127.092773
593.733582	-167.302444	80602.492188	12344.923828
594.157227	-23.129223	80602.492188	12104.850586
594.580750	-120.033730	80602.492188	12080.379883
595.004272	-202.157120	80602.492188	11748.594727
595.427673	-30.577681	80602.492188	11942.398438
595.851074	-132.469025	80602.492188	12038.106445
596.274353	93.441315	80602.492188	11937.946289
596.697632	-30.577681	80602.492188	11826.586914
597.120911	167.729858	80602.492188	11241.888672
597.544067	71.136856	80602.492188	11565.732422
597.967224	-30.577681	80602.492188	11369.266602
598.390320	41.384811	80602.492188	11572.425781
598.813354	244.399582	80602.492188	11521.101563
599.236328	-179.748154	80602.492188	11201.642578
599.659241	-55.412766	80602.492188	11286.593750
600.082153	-139.931534	80602.492188	11040.562500
600.505005	-115.060249	80602.492188	10957.721680
600.927795	-67.834335	80602.492188	11000.266602
601.350525	-42.993977	80602.492188	11132.308594
601.773254	26.503218	80602.492188	11004.744141
602.195862	-127.494621	80602.492188	10634.898438
602.618408	-97.656723	80602.492188	10720.152344
603.040955	-8.235133	80602.492188	10706.695313
603.463440	-10.717264	80602.492188	10430.546875
603.885925	-167.302444	80602.492188	10708.937500
604.308350	113.260536	80602.492188	10435.041016
604.730652	-47.961151	80602.492188	10367.615234
605.152893	-80.258423	80602.492188	10291.161133
605.575195	-52.928879	80602.492188	10331.641602
605.997375	-97.656723	80602.492188	10423.804688
606.419495	-90.199692	80602.492188	10219.169922
606.841553	9.136594	80602.492188	10237.169922
607.263672	-174.769485	80602.492188	10057.060547
607.685608	236.984253	80602.492188	9928.599609
608.107605	-152.371277	80602.492188	10041.290039
608.529480	-125.007500	80602.492188	9987.209961
608.951294	236.984253	80602.492188	9822.590820
609.373108	-179.748154	80602.492188	9754.884766
609.794800	-222.083740	80602.492188	9763.913086
610.216553	-10.717264	80602.492188	9664.559570
610.638123	-52.928879	80602.492188	9599.040039
611.059753	90.963425	80602.492188	9420.403320
611.481262	-82.743614	80602.492188	9490.527344
611.902832	-127.494621	80602.492188	9415.877930
612.324219	-57.896896	80602.492188	9390.984375
612.745605	-65.349785	80602.492188	9381.932617
613.166931	-38.027088	80602.492188	9273.253906
613.588196	-62.865475	80602.492188	9227.947266
614.009460	-50.444962	80602.492188	9284.577148
614.430664	-117.546936	80602.492188	9062.449219
614.851807	-62.865475	80602.492188	9128.217773
615.272827	-92.685310	80602.492188	9196.221680
615.693909	-85.228912	80602.492188	8796.789063
616.114929	19.061022	80602.492188	8960.333008
616.535889	-152.371277	80602.492188	8717.219727
616.956787	-117.546936	80602.492188	8730.862305
617.377563	110.783455	80602.492188	8560.215820
617.798340	147.928452	80602.492188	8655.804688
618.219055	-57.896896	80602.492188	8658.080078
618.639832	-117.546936	80602.492188	8389.354492
619.060364	33.944618	80602.492188	8505.563477
619.481018	4.173823	80602.492188	8309.543945
619.901611	-214.610489	80602.492188	8147.498535
620.322083	-28.094847	80602.492188	8097.248535
620.742493	-65.349785	80602.492188	8040.121094
621.162842	-92.685310	80602.492188	7827.394043
621.583191	-134.956467	80602.492188	7866.305664
622.003418	66.179390	80602.492188	7499.625488
622.423706	83.529396	80602.492188	7527.161621
622.843872	73.615570	80602.492188	7524.867188
623.264038	36.424606	80602.492188	7481.264160
623.684143	-172.280457	80602.492188	7251.531250
624.104126	-28.094847	80602.492188	7265.326660
624.524170	63.700367	80602.492188	7217.036133
624.944031	31.464254	80602.492188	7177.929688
625.364014	73.615570	80602.492188	6973.004395
625.783752	-35.543938	80602.492188	7037.510742
626.203552	-8.235133	80602.492188	6790.828125
626.623230	-62.865475	80602.492188	6659.221191
627.042969	185.050781	80602.492188	6691.558105
627.462585	41.384811	80602.492188	6411.796875
627.882141	-33.060757	80602.492188	6418.740723
628.301697	-18.164152	80602.492188	6421.055176
628.721130	298.752930	80602.492188	6323.809082
629.140625	-127.494621	80602.492188	6163.880371
629.559998	-28.094847	80602.492188	6115.165527
629.979309	-120.033730	80602.492188	6024.644531
630.398560	-28.094847	80602.492188	6013.034180
630.817810	-70.319000	80602.492188	6052.503906
631.237000	-152.371277	80602.492188	5885.249023
631.656067	-137.444016	80602.492188	5666.541504
632.075195	-132.469025	80602.492188	5699.140137
632.494202	-187.216827	80602.492188	5729.401855
632.913208	-90.199692	80602.492188	5480.094727
633.332092	-87.714317	80602.492188	5596.657715
633.750977	63.700367	80602.492188	5487.091309
634.169739	-92.685310	80602.492188	5354.078125
634.588562	-77.773476	80602.492188	5398.432617
635.007263	-55.412766	80602.492188	5258.309082
635.425964	-72.803627	80602.492188	5129.716797
635.844543	-62.865475	80602.492188	5167.140137
636.263123	-102.628700	80602.492188	5190.523438
636.681641	-35.543938	80602.492188	5045.469727
637.100037	48.824348	80602.492188	4888.515625
637.518494	95.919113	80602.492188	4874.449219
637.936829	68.658310	80602.492188	4923.672852
638.355164	88.485428	80602.492188	4745.430664
638.773438	133.073242	80602.492188	4653.855469
639.191650	-192.196442	80602.492188	4618.615234
639.609863	-202.157120	80602.492188	4628.013672
640.027893	-30.577681	80602.492188	4679.692383
640.445984	-137.444016	80602.492188	4670.297363
640.863953	-80.258423	80602.492188	4475.188965
641.281921	-52.928879	80602.492188	4679.692383
641.699829	-212.119568	80602.492188	4454.012695
642.117676	88.485428	80602.492188	4397.521484
642.535461	-169.791397	80602.492188	4324.511719
642.953247	9.136594	80602.492188	4331.579102
643.370972	155.354568	80602.492188	4166.550781
643.788635	-8.235133	80602.492188	4192.500488
644.206177	-45.477573	80602.492188	4270.312012
644.623718	105.828987	80602.492188	4227.876465
645.041260	-169.791397	80602.492188	4041.435303
645.458618	-28.094847	80602.492188	4041.435303
645.876099	-164.813736	80602.492188	4034.349365
646.293396	11.617891	80602.492188	4053.244873
646.710693	-115.060249	80602.492188	3954.004395
647.127991	-162.324997	80602.492188	3812.072510
647.545166	-60.381130	80602.492188	3812.072510
647.962341	-125.007500	80602.492188	3802.603760
648.379333	-224.575104	80602.492188	3759.983398
648.796448	-187.216827	80602.492188	3662.838623
649.213379	-55.412766	80602.492188	3700.759521
649.630310	-107.600967	80602.492188	3515.765137
650.047180	-60.381130	80602.492188	3613.047119
650.463989	-52.928879	80602.492188	3567.976318
650.880859	105.828987	80602.492188	3416.014893
651.297546	-122.520622	80602.492188	3499.146729
651.714233	16.580038	80602.492188	3356.593018
652.130859	-0.789500	80602.492188	3475.401855
652.547485	-105.114853	80602.492188	3347.082764
652.963928	199.893356	80602.492188	3406.509521
653.380432	43.864761	80602.492188	3370.857666
653.796814	-40.510479	80602.492188	3190.025879
654.213196	-50.444962	80602.492188	3254.306152
654.629578	-0.789500	80602.492188	3161.443604
655.045837	-13.199366	80602.492188	3142.384033
655.462036	-52.928879	80602.492188	3109.021240
655.878174	-172.280457	80602.492188	2989.775146
656.294312	11.617891	80602.492188	3054.185791
656.710327	-87.714317	80602.492188	3018.407227
657.126404	-120.033730	80602.492188	2951.584961
657.542358	256.756714	80602.492188	2887.105225
657.958252	-219.592499	80602.492188	2834.534424
658.374084	-129.981827	80602.492188	3047.031494
658.789917	4.173823	80602.492188	2925.320557
659.205688	-0.789500	80602.492188	2746.053223
659.621338	-18.164152	80602.492188	2817.801025
660.037048	744.194519	80602.492188	2834.534424
660.452637	28.983788	80602.492188	2736.482666
660.868164	355.526520	80602.492188	2722.125488
661.283691	-97.656723	80602.492188	2595.204102
661.699158	-28.094847	80602.492188	2583.221680
662.114502	160.304993	80602.492188	2552.059082
662.529846	135.549408	80602.492188	2528.081055
662.945129	51.303989	80602.492188	2547.264404
663.360413	-42.993977	80602.492188	2568.840088
663.775635	-157.347855	80602.492188	2566.443359
664.190674	-202.157120	80602.492188	2460.908447
664.605835	175.153564	80602.492188	2554.456787
665.020813	-28.094847	80602.492188	2405.693848
665.435791	160.304993	80602.492188	2408.095215
665.850769	-172.280457	80602.492188	2251.872803
666.265625	-132.469025	80602.492188	2304.778809
666.680420	41.384811	80602.492188	2177.269043
667.095215	28.983788	80602.492188	2184.491699
667.509949	-127.494621	80602.492188	2189.306396
667.924622	-157.347855	80602.492188	2227.813965
668.339233	-100.142662	80602.492188	2032.691772
668.753784	-172.280457	80602.492188	2078.500977
669.168335	-5.753106	80602.492188	2117.058105
669.582825	244.399582	80602.492188	2049.571777
669.997192	204.840164	80602.492188	2008.571899
670.411560	-92.685310	80602.492188	2042.338013
670.825867	-13.199366	80602.492188	1984.444824
671.240173	38.904758	80602.492188	1914.437866
671.654358	9.136594	80602.492188	1907.192505
672.068481	95.919113	80602.492188	1969.965576
672.482605	-125.007500	80602.492188	1834.703003
672.896667	-266.944366	80602.492188	1822.615356
673.310669	-192.196442	80602.492188	1822.615356
673.724609	249.342850	80602.492188	1808.107788
674.138489	-28.094847	80602.492188	1837.120361
674.552307	-144.907166	80602.492188	1766.988647
674.966064	-70.319000	80602.492188	1735.530884
675.379822	293.813599	80602.492188	1612.000854
675.793579	-42.993977	80602.492188	1762.150024
676.207153	38.904758	80602.492188	1641.083740
676.620789	76.094177	80602.492188	1575.631958
677.034241	86.007599	80602.492188	1561.079834
677.447754	-42.993977	80602.492188	1580.481812
677.861206	103.351608	80602.492188	1495.561523
678.274597	78.572685	80602.492188	1590.181396
678.687866	66.179390	80602.492188	1466.424438
679.101135	11.617891	80602.492188	1417.838623
679.514404	-134.956467	80602.492188	1488.278198
679.927551	-55.412766	80602.492188	1456.709839
680.340698	26.503218	80602.492188	1456.709839
680.753723	-92.685310	80602.492188	1488.278198
681.166748	-100.142662	80602.492188	1398.395630
681.579712	-107.600967	80602.492188	1393.534302
681.992615	167.729858	80602.492188	1471.281372
682.405457	281.463837	80602.492188	1442.135498
682.818298	207.313156	80602.492188	1369.222046
683.231018	155.354568	80602.492188	1323.007690
683.643738	185.050781	80602.492188	1281.633911
684.056335	-62.865475	80602.492188	1164.690430
684.468994	73.615570	80602.492188	1206.129150
684.881531	68.658310	80602.492188	1220.748901
685.293945	71.136856	80602.492188	1123.228760
685.706482	11.617891	80602.492188	1318.141235
686.118774	125.644135	80602.492188	1245.109009
686.531128	264.169952	80602.492188	1181.756226
686.943481	-154.859573	80602.492188	1184.193848
687.355713	138.025208	80602.492188	1125.668335
687.767883	-189.706650	80602.492188	1213.439209
688.179932	14.098948	80602.492188	1218.312378
688.592041	-18.164152	80602.492188	1162.252075
689.004089	-152.371277	80602.492188	1069.537231
689.416016	-5.753106	80602.492188	1103.709106
689.827881	1.692214	80602.492188	1108.589600
690.239868	-67.834335	80602.492188	1103.709106
690.651611	-38.027088	80602.492188	1018.249084
691.063354	-5.753106	80602.492188	988.925171
691.475098	-3.271183	80602.492188	986.480957
691.886719	170.204620	80602.492188	1108.589600
692.298340	41.384811	80602.492188	947.362183
692.709900	145.452805	80602.492188	957.144043
693.121460	41.384811	80602.492188	966.924255
693.532837	76.094177	80602.492188	988.925171
693.944214	1.692214	80602.492188	922.902100
694.355652	-129.981827	80602.492188	881.300171
694.766846	-199.666885	80602.492188	1013.362549
695.178101	-100.142662	80602.492188	900.880676
695.589294	76.094177	80602.492188	771.057922
696.000366	-125.007500	80602.492188	932.687134
696.411438	93.441315	80602.492188	822.526245
696.822510	-45.477573	80602.492188	837.224365
697.233459	-102.628700	80602.492188	866.611328
697.644409	31.464254	80602.492188	827.425781
698.055298	-35.543938	80602.492188	795.571228
698.466064	-13.199366	80602.492188	790.669434
698.876831	125.644135	80602.492188	802.923706
699.287537	170.204620	80602.492188	665.549133
699.698181	-20.646566	80602.492188	795.571228
700.108826	81.051094	80602.492188	788.218323
700.519348	-100.142662	80602.492188	822.526245
700.929810	-42.993977	80602.492188	775.961121
701.340271	303.691864	80602.492188	829.875610
701.750732	269.111633	80602.492188	773.509644
702.161011	113.260536	80602.492188	729.364624
702.571350	86.007599	80602.492188	783.315613
702.981567	316.037231	80602.492188	746.535461
703.391724	14.098948	80602.492188	653.270081
703.801880	-82.743614	80602.492188	714.643311
704.211914	-117.546936	80602.492188	690.100830
704.621948	-55.412766	80602.492188	628.704895
705.031921	-20.646566	80602.492188	540.195435
705.441895	-28.094847	80602.492188	606.588562
705.851746	155.354568	80602.492188	623.790710
706.261536	71.136856	80602.492188	616.419067
706.671265	16.580038	80602.492188	633.618652
707.081055	11.617891	80602.492188	692.555237
707.490662	68.658310	80602.492188	618.876465
707.900330	11.617891	80602.492188	554.955444
708.309814	-35.543938	80602.492188	616.419067
708.719299	194.946136	80602.492188	584.465088
709.128784	343.188599	80602.492188	550.035828
709.538147	4.173823	80602.492188	545.115784
709.947510	61.221245	80602.492188	483.585449
710.356750	-97.656723	80602.492188	446.639191
710.766052	6.655193	80602.492188	567.252686
711.175171	-33.060757	80602.492188	493.434113
711.584290	31.464254	80602.492188	510.665894
711.993347	-72.803627	80602.492188	540.195435
712.402405	212.259369	80602.492188	500.819855
712.811401	51.303989	80602.492188	458.956848
713.220276	110.783455	80602.492188	498.358032
713.629150	53.783257	80602.492188	478.660431
714.037964	-142.419296	80602.492188	461.420166
714.446777	-35.543938	80602.492188	446.639191
714.855408	53.783257	80602.492188	412.136902
715.264099	-95.171028	80602.492188	458.956848
715.672668	90.963425	80602.492188	454.030212
716.081177	78.572685	80602.492188	468.809540
716.489746	-127.494621	80602.492188	518.049683
716.898132	118.214386	80602.492188	419.531921
717.306519	16.580038	80602.492188	429.390350
717.714844	-65.349785	80602.492188	431.854797
718.123108	120.690887	80602.492188	402.275818
718.531372	19.061022	80602.492188	417.067017
718.939514	249.342850	80602.492188	426.925842
719.347595	78.572685	80602.492188	429.390350
719.755676	63.700367	80602.492188	456.493469
720.163696	51.303989	80602.492188	372.682861
720.571716	1.692214	80602.492188	380.082458
720.979614	-60.381130	80602.492188	367.749603
721.387451	-33.060757	80602.492188	303.579315
721.795227	212.259369	80602.492188	387.480927
722.202942	-120.033730	80602.492188	348.011871
722.610718	-82.743614	80602.492188	380.082458
723.018311	16.580038	80602.492188	291.231476
723.425903	6.655193	80602.492188	306.048645
723.833374	-85.228912	80602.492188	320.862305
724.240906	-182.237640	80602.492188	303.579315
724.648376	-159.836365	80602.492188	315.924988
725.055725	68.658310	80602.492188	291.231476
725.463013	46.344608	80602.492188	308.517883
725.870300	-15.681705	80602.492188	259.115540
726.277466	229.567749	80602.492188	241.815430
726.684631	36.424606	80602.492188	313.456055
727.091797	-45.477573	80602.492188	338.140564
727.498779	86.007599	80602.492188	254.173203
727.905823	128.120605	80602.492188	187.412079
728.312805	318.506073	80602.492188	239.343552
728.719666	296.283325	80602.492188	207.200699
729.126526	323.443481	80602.492188	246.758743
729.533264	36.424606	80602.492188	261.586609
729.940063	160.304993	80602.492188	246.758743
730.346680	110.783455	80602.492188	301.110168
730.753357	167.729858	80602.492188	241.815430
731.159851	36.424606	80602.492188	231.927475
731.566406	-70.319000	80602.492188	226.982971
731.972900	-35.543938	80602.492188	239.343552
732.379272	-5.753106	80602.492188	291.231476
732.785645	-35.543938	80602.492188	259.115540
733.191895	-152.371277	80602.492188	236.871704
733.598206	-38.027088	80602.492188	256.644348
734.004333	16.580038	80602.492188	222.037918
734.410522	397.456696	80602.492188	207.200699
734.816528	-112.573807	80602.492188	199.780746
735.222656	-70.319000	80602.492188	310.987000
735.628662	-40.510479	80602.492188	217.092621
736.034546	24.022545	80602.492188	204.727432
736.440430	-8.235133	80602.492188	256.644348
736.846252	-30.577681	80602.492188	239.343552
737.252014	38.904758	80602.492188	246.758743
737.657715	-3.271183	80602.492188	276.410828
738.063354	73.615570	80602.492188	189.886032
738.468933	33.944618	80602.492188	222.037918
738.874512	-5.753106	80602.492188	187.412079
739.280029	-5.753106	80602.492188	231.927475
739.685486	-15.681705	80602.492188	95.806313
740.090881	202.366806	80602.492188	179.989731
740.496216	-28.094847	80602.492188	197.307190
740.901550	120.690887	80602.492188	241.815430
741.306702	199.893356	80602.492188	192.359909
741.711914	103.351608	80602.492188	177.515503
742.117004	165.255005	80602.492188	157.717285
742.522095	-55.412766	80602.492188	182.463989
742.927124	16.580038	79927.679688	165.142334
743.332031	-0.789500	78658.429688	120.578278
743.737000	-35.543938	77670.046875	115.624748
744.141785	-65.349785	76394.765625	170.091827
744.546631	71.136856	74596.062500	140.388596
744.951355	-33.060757	74210.281250	157.717285
745.356079	95.919113	73373.070313	189.886032
745.760620	-187.216827	71579.039063	187.412079
746.165283	21.541903	70998.992188	204.727432
746.569824	6.655193	70075.000000	140.388596
746.974243	56.262688	68230.796875	137.912628
747.378723	1.692214	67833.898438	63.587513
747.783020	-72.803627	66812.367188	142.864471
748.187378	-87.714317	65633.000000	177.515503
748.591614	-55.412766	65178.554688	184.938156
748.995850	58.742020	63502.425781	137.912628
749.399963	-187.216827	62771.433594	145.340088
749.804077	-159.836365	62122.449219	179.989731
750.208130	-28.094847	60967.183594	165.142334
750.612122	6.655193	60131.390625	152.766800
751.016052	-23.129223	58967.785156	125.531532
751.419922	1.692214	58198.675781	147.815765
751.823792	-15.681705	57185.429688	137.912628
752.227478	-30.577681	56714.277344	145.340088
752.631226	187.524841	55606.437500	135.436691
753.034851	-50.444962	55125.289063	73.502869
753.438477	-47.961151	54448.917969	142.864471
753.842102	-40.510479	53830.457031	103.238960
754.245544	51.303989	53086.386719	71.024147
754.648987	-152.371277	51655.441406	113.147766
755.052368	-100.142662	51129.699219	110.670685
755.455750	-33.060757	50570.398438	100.761604
755.859009	-90.199692	49977.109375	80.938271
756.262268	-90.199692	49266.531250	108.193634
756.665405	232.040009	48928.785156	56.149952
757.068542	4.173823	48094.371094	56.149952
757.471680	100.874390	47075.125000	135.436691
757.874634	-137.444016	46777.367188	36.311832
758.277588	-177.258774	45750.761719	83.416580
758.680420	-52.928879	45316.617188	46.231720
759.083374	-97.656723	44575.882813	58.629284
759.486084	-142.419296	43545.335938	61.108383
759.888916	51.303989	42461.375000	71.024147
760.291504	-80.258423	41518.710938	58.629284
760.694214	26.503218	40506.992188	31.351336
761.096802	-164.813736	40265.937500	73.502869
761.499268	43.864761	39897.507813	73.502869
761.901733	-90.199692	38929.578125	43.751869
762.304199	-102.628700	38876.097656	48.711464
762.706543	-47.961151	38113.140625	123.054955
763.108826	1.692214	37644.812500	93.328651
763.511108	43.864761	37130.457031	18.948080
763.913208	-28.094847	36485.800781	18.948080
764.315369	-57.896896	35728.417969	26.390291
764.717529	-38.027088	35582.250000	105.716347
765.119568	239.455948	35557.886719	78.459862
765.521545	48.824348	34702.742188	26.390291
765.923462	66.179390	34616.308594	58.629284
766.325317	-134.956467	34033.210938	83.416580
766.727112	-247.001862	33296.558594	41.272049
767.128845	66.179390	33090.085938	85.894653
767.530518	-87.714317	32665.871094	66.066536
767.932251	185.050781	32437.017578	26.390291
768.333862	-204.647614	31843.507813	85.894653
768.735413	-115.060249	31478.789063	147.815765
769.136841	165.255005	30947.082031	61.108383
769.538269	157.829834	31216.294922	41.272049
769.939636	81.051094	30499.789063	13.986133
770.341003	-137.444016	29286.757813	28.870867
770.742249	-57.896896	29357.976563	123.054955
771.143433	28.983788	28721.517578	1.579239
771.544617	-100.142662	28374.455078	26.390291
771.945740	-13.199366	27867.398438	33.831570
772.346802	-95.171028	27791.806641	4.060853
772.747803	-60.381130	26860.869141	-5.866095
773.148682	-25.611982	26916.378906	-8.348126
773.549622	-20.646566	26002.257813	73.502869
773.950439	150.404022	26141.939453	48.711464
774.351196	-102.628700	25269.029297	23.909748
774.751892	138.025208	25406.283203	33.831570
775.152588	31.464254	24903.955078	46.231720
775.553162	340.721008	24740.322266	68.545326
775.953735	271.582306	24369.068359	6.542363
776.354309	61.221245	24236.556641	6.542363
776.754639	-42.993977	23634.158203	128.007874
777.155090	-122.520622	22772.910156	90.850754
777.555420	-82.743614	22715.703125	53.670513
777.955750	-75.288498	22247.335938	9.023634
778.355896	-152.371277	22141.857422	51.190975
778.756104	-23.129223	21854.117188	38.791992
779.156189	-33.060757	21410.773438	33.831570
779.556274	14.098948	21097.158203	-0.902345
779.956299	-30.577681	20943.710938	75.981476
780.356201	-132.469025	20978.783203	-15.794714
780.756165	31.464254	20520.845703	18.948080
781.156006	24.022545	20047.921875	46.231720
781.555786	-127.494621	19783.130859	-8.348126
781.955505	-110.087334	19426.554688	-23.242245
782.355225	61.221245	19535.919922	38.791992
782.754761	53.783257	19030.736328	31.351336
783.154358	-35.543938	18753.068359	-45.590508
783.553894	-13.199366	18438.271484	36.311832
783.953369	-144.907166	18265.576172	33.831570
784.352783	-15.681705	18038.232422	-33.173798
784.752075	90.963425	17817.439453	33.831570
785.151367	-35.543938	17555.083984	21.428967
785.550598	-30.577681	17312.373047	-15.794714
785.949768	56.262688	17001.798828	80.938271
786.348877	-147.395142	17078.357422	56.149952
786.747986	-25.611982	16400.009766	23.909748
787.147034	-8.235133	16327.759766	51.190975
787.545959	-60.381130	16253.307617	-8.348126
787.944885	150.404022	16165.706055	63.587513
788.343750	90.963425	15698.960938	38.791992
788.742493	-42.993977	15795.416992	46.231720
789.141235	-87.714317	15297.545898	-13.312368
789.539917	-47.961151	15042.872070	33.831570
789.938538	-87.714317	14862.726563	-0.902345
790.337158	11.617891	14805.585938	61.108383
790.735718	185.050781	14598.912109	-38.140141
791.134094	-167.302444	14055.126953	56.149952
791.532532	217.205200	14315.047852	61.108383
791.930847	128.120605	14000.025391	18.948080
792.329224	189.998520	13964.752930	21.428967
792.727417	-142.419296	13638.253906	38.791992
793.125610	-209.628754	13724.333984	11.504935
793.523682	-100.142662	13483.669922	-62.978439
793.921753	83.529396	13191.877930	-23.242245
794.319824	-85.228912	12926.267578	46.231720
794.717773	26.503218	12799.981445	41.272049
795.115723	108.306274	12567.139648	-25.725010
795.513550	43.864761	12311.800781	31.351336
795.911377	31.464254	12516.099609	11.504935
796.309082	382.660950	12505.001953	36.311832
796.706787	-82.743614	11878.022461	75.981476
797.104370	26.503218	11637.318359	46.231720
797.501953	202.366806	11779.999023	26.390291
797.899536	-90.199692	11507.911133	1.579239
798.296936	-120.033730	11391.807617	-13.312368
798.694397	-60.381130	11237.621094	-62.978439
799.091736	-38.027088	11215.263672	31.351336
799.489014	-115.060249	10962.403320	75.981476
799.886230	311.099274	10982.556641	-45.590508
800.283447	-28.094847	10749.510742	26.390291
800.680542	185.050781	10399.288086	28.870867
801.077637	-67.834335	10621.637695	-125.120720
801.474670	-47.961151	10383.553711	-60.494091
801.871643	-82.743614	10120.328125	63.587513
802.268555	-45.477573	10275.620117	-18.277029
802.665405	-23.129223	9777.661133	-58.009991
803.062256	219.677948	9953.602539	-87.827324
803.458923	100.874390	9540.477539	-82.856758
803.855652	-212.119568	9481.686523	-50.558037
804.252258	471.384460	9732.513672	-15.794714
804.648804	100.874390	9445.494141	-30.690720
805.045410	24.022545	9123.888672	11.504935
805.441833	254.285706	9080.801758	66.066536
805.838257	-92.685310	8960.539063	-35.656849
806.234619	194.946136	8969.619141	4.060853
806.630859	76.094177	8712.876953	23.909748
807.027100	-92.685310	8687.858398	-13.312368
807.423279	-212.119568	8519.435547	-60.494091
807.819458	58.742020	8487.547852	68.545326
808.215515	-132.469025	8444.259766	41.272049
808.611572	269.111633	8521.711914	41.272049
809.007507	28.983788	8254.997070	66.066536
809.403381	66.179390	8067.752930	48.711464
809.799194	-90.199692	7953.449219	16.467226
810.195068	217.205200	8113.446777	-3.384167
810.590759	83.529396	7745.164551	-20.759584
810.986450	-85.228912	7669.550781	9.023634
811.382080	108.306274	7660.382324	4.060853
811.777649	21.541903	7476.881836	-13.312368
812.173157	320.974823	7577.838379	-23.242245
812.568665	-144.907166	7258.637695	-13.312368
812.964050	83.529396	7382.737305	-20.759584
813.359375	28.983788	6963.995605	-20.759584
813.754639	-15.681705	6968.604980	1.579239
814.149841	-47.961151	6927.117676	-62.978439
814.545105	58.742020	6814.111816	36.311832
814.940186	-45.477573	6645.569824	-35.656849
815.335266	83.529396	6622.464355	-20.759584
815.730347	380.194611	6777.190430	-43.106899
816.125244	-57.896896	6432.836914	4.060853
816.520203	303.691864	6354.127441	-67.947449
816.914978	-55.412766	6405.062500	-55.525852
817.309753	-23.129223	6103.774902	-58.009991
817.704468	115.737511	6235.968750	-55.525852
818.099182	387.593353	6296.219727	28.870867
818.493774	51.303989	5985.375977	-55.525852
818.888367	357.993805	6182.644531	4.060853
819.282898	328.380219	6008.600098	-10.830128
819.677307	367.861755	6157.133301	-23.242245
820.071716	278.993530	5859.886719	-10.830128
820.466003	128.120605	5599.200195	53.670513
820.860291	138.025208	5738.923340	-23.242245
821.254517	311.099274	5722.630859	-65.462891
821.648743	11.617891	5575.895996	-67.947449
822.042786	120.690887	5405.646484	38.791992
822.436890	36.424606	5498.963867	-85.342049
822.830872	197.419800	5340.280273	9.023634
823.224792	-157.347855	5209.439453	-8.348126
823.618774	76.094177	5223.464844	16.467226
824.012512	-139.931534	5024.611816	41.272049
824.406311	88.485428	5309.918945	-15.794714
824.799988	-82.743614	4987.143066	-33.173798
825.193665	26.503218	4973.088379	-18.277029
825.587280	-30.577681	4987.143066	-13.312368
825.980835	157.829834	5017.586914	-72.916748
826.374329	-40.510479	5008.221191	-50.558037
826.767761	58.742020	4933.259766	-77.886475
827.161194	-0.789500	4670.511230	-13.312368
827.554443	38.904758	4682.253906	31.351336
827.947754	-90.199692	4623.528320	-67.947449
828.340942	76.094177	4679.905762	-18.277029
828.734131	14.098948	4548.314453	-48.074219
829.127136	-154.859573	4294.094727	6.542363
829.520264	-82.743614	4378.898926	-65.462891
829.913208	147.928452	4383.608398	-53.041824
830.306152	46.344608	4425.985352	31.351336
830.699097	-15.681705	4138.450195	18.948080
831.091797	-80.258423	4190.355957	-50.558037
831.484619	-70.319000	4036.925781	-30.690720
831.877319	370.328583	4305.876953	-28.207745
832.270020	170.204620	4263.455078	36.311832
832.662537	-3.271183	3989.672852	-53.041824
833.055054	-144.907166	3973.129395	-33.173798
833.447510	365.394867	4091.241211	-35.656849
833.839966	-90.199692	3753.093506	-67.947449
834.232361	-197.176636	3800.451416	-53.041824
834.624634	-45.477573	3781.510742	21.428967
835.016907	217.205200	3956.583496	18.948080
835.409058	-45.477573	3717.560547	-107.714157
835.801208	-52.928879	3610.890625	-28.207745
836.193298	-10.717264	3606.147217	13.986133
836.585327	199.893356	3658.313232	21.428967
836.977295	-25.611982	3428.110840	-28.207745
837.369202	-23.129223	3337.787109	66.066536
837.761047	-134.956467	3468.493164	-43.106899
838.152832	26.503218	3413.854736	-10.830128
838.544617	38.904758	3475.617676	18.948080
838.936218	-5.753106	3523.101807	71.024147
839.327942	81.051094	3271.180908	-30.690720
839.719421	28.983788	3352.054443	-38.140141
840.111023	108.306274	3187.860840	11.504935
840.502380	58.742020	3099.703369	-15.794714
840.893860	-139.931534	3078.248047	-60.494091
841.285217	76.094177	3144.983398	-48.074219
841.676453	276.523132	3195.005615	16.467226
842.067749	46.344608	3116.387939	-80.371559
842.458862	-62.865475	3040.093018	-67.947449
842.849976	-18.164152	2918.373535	-58.009991
843.241028	-5.753106	3028.166504	-107.714157
843.632019	36.424606	2975.672119	-43.106899
844.022949	21.541903	2861.040771	41.272049
844.413879	-77.773476	2765.408936	-25.725010
844.804749	-55.412766	2882.544678	43.751869
845.195496	-169.791397	2758.232422	-55.525852
845.586182	-40.510479	2822.799561	16.467226
845.976807	-57.896896	2650.522217	-5.866095
846.367432	-62.865475	2600.214600	-40.623535
846.757996	-3.271183	2636.151611	9.023634
847.148499	41.384811	2743.878418	-43.106899
847.538879	229.567749	2751.055664	-40.623535
847.929260	-40.510479	2619.382813	-38.140141
848.319641	209.786316	2473.125000	-18.277029
848.709839	9.136594	2535.493408	-28.207745
849.100098	-42.993977	2381.894775	-92.798462
849.490234	-82.743614	2357.871582	-182.350845
849.880310	86.007599	2451.526611	-3.384167
850.270325	73.615570	2307.401367	-97.769890
850.660339	68.658310	2533.094971	-25.725010
851.050171	108.306274	2357.871582	-3.384167
851.440125	83.529396	2273.738525	-15.794714
851.829895	-47.961151	2165.448975	-90.312836
852.219604	-92.685310	2155.816650	-50.558037
852.609314	-47.961151	2244.874512	-75.401619
852.998901	-30.577681	2117.276855	63.587513
853.388550	-15.681705	2256.902344	4.060853
853.778015	76.094177	2216.000977	-35.656849
854.167480	31.464254	2182.302979	23.909748
854.556885	150.404022	2177.487793	-33.173798
854.946228	-28.094847	2211.187744	-58.009991
855.335571	4.173823	2006.378906	-40.623535
855.724731	-75.288498	2134.140137	1.579239
856.113953	-97.656723	1897.750122	-87.827324
856.503052	-57.896896	1946.046997	-50.558037
856.892151	-13.199366	1929.146362	-75.401619
857.281067	-85.228912	1890.503296	-40.623535
857.670105	-129.981827	1776.885498	-127.607834
858.058960	-3.271183	2020.851807	-55.525852
858.447754	88.485428	2035.322754	-33.173798
858.836609	217.205200	2167.856689	-50.558037
859.225281	78.572685	1844.591675	-45.590508
859.613892	76.094177	2023.264038	-72.916748
860.002502	-72.803627	1774.466675	-149.996353
860.391052	-142.419296	1767.208496	-3.384167
860.779541	-90.199692	1793.817261	-48.074219
861.167969	288.874146	1936.389771	-23.242245
861.556335	63.700367	1866.342651	21.428967
861.944702	-65.349785	1745.431152	-30.690720
862.332947	-50.444962	1830.087646	-85.342049
862.721069	61.221245	1803.491089	-50.558037
863.109253	-75.288498	1752.691284	-15.794714
863.497314	128.120605	1730.910156	4.060853
863.885376	46.344608	1604.948730	1.579239
864.273315	128.120605	1563.725464	11.504935
864.661255	-42.993977	1585.552002	-8.348126
865.049072	-75.288498	1612.220947	11.504935
865.436890	-132.469025	1638.880981	-53.041824
865.824707	165.255005	1631.610596	-8.348126
866.212280	152.879486	1670.376221	-18.277029
866.599915	-8.235133	1541.893188	11.504935
866.987488	48.824348	1604.948730	-25.725010
867.375061	26.503218	1466.645264	-53.041824
867.762451	138.025208	1444.785278	90.850754
868.149841	-125.007500	1367.011597	36.311832
868.537170	43.864761	1573.427002	-62.978439
868.924438	-38.027088	1456.930420	-30.690720
869.311707	-5.753106	1464.216675	-13.312368
869.698853	71.136856	1456.930420	-60.494091
870.085938	61.221245	1369.442871	-67.947449
870.472961	-25.611982	1347.555542	-10.830128
870.859985	-13.199366	1388.893188	85.894653
871.246887	264.169952	1384.031372	-105.227890
871.633789	-45.477573	1393.755127	66.066536
872.020569	-28.094847	1437.497314	-38.140141
872.407349	454.142242	1374.306030	-10.830128
872.794067	115.737511	1391.324219	53.670513
873.180725	185.050781	1306.195190	-38.140141
873.567322	16.580038	1323.228638	-50.558037
873.953796	1.692214	1140.525635	-70.431976
874.340332	140.501175	1274.551514	-23.242245
874.726624	194.946136	1308.628784	-20.759584
875.113037	-95.171028	1189.290405	-100.255829
875.499329	-75.288498	1157.596924	-97.769890
875.885559	86.007599	1225.842896	-30.690720
876.271729	-85.228912	1191.727783	41.272049
876.657898	88.485428	1152.719849	-65.462891
877.044006	-55.412766	1055.109009	1.579239
877.429932	88.485428	1106.370972	-48.074219
877.815918	-70.319000	1123.450439	-23.242245
878.201782	155.354568	1125.890015	-43.106899
878.587585	402.387939	1199.039551	16.467226
878.973389	93.441315	1055.109009	-8.348126
879.359070	249.342850	1135.647339	-38.140141
879.744751	1.692214	1094.169189	28.870867
880.130310	-70.319000	1086.846924	11.504935
880.515930	-20.646566	1101.490356	1.579239
880.901367	-110.087334	928.017090	-15.794714
881.286804	93.441315	1223.406616	-28.207745
881.672180	83.529396	918.231262	9.023634
882.057434	-179.748154	962.256531	-48.074219
882.442749	11.617891	871.730469	46.231720
882.827942	115.737511	1084.405884	-65.462891
883.213013	-30.577681	967.146301	-72.916748
883.598145	177.628021	1030.685913	-50.558037
883.983154	46.344608	937.801392	51.190975
884.368042	-80.258423	964.701660	-13.312368
884.753052	-129.981827	815.398376	-18.277029
885.137817	-194.686478	834.997314	16.467226
885.522644	123.167564	950.029846	13.986133
885.907349	-67.834335	847.244080	-50.558037
886.292053	-28.094847	915.784851	-58.009991
886.676636	-18.164152	881.522827	-117.660141
887.061157	-35.543938	827.648560	-43.106899
887.445740	-67.834335	790.892090	-62.978439
887.830078	-80.258423	717.320007	-38.140141
888.214539	204.840164	1069.759033	-33.173798
888.598816	197.419800	1018.471008	-10.830128
888.983093	51.303989	879.074890	23.909748
889.367249	36.424606	776.184082	9.023634
889.751465	-50.444962	751.663452	-33.173798
890.135498	53.783257	707.504517	-23.242245
890.519531	204.840164	893.761108	53.670513
890.903503	43.864761	803.146301	73.502869
891.287415	249.342850	732.040710	-38.140141
891.671326	222.150620	871.730469	-38.140141
892.055054	73.615570	736.947021	-20.759584
892.438843	66.179390	673.138672	-67.947449
892.822510	-122.520622	734.493896	-20.759584
893.206116	-97.656723	611.727478	-122.633705
893.589661	199.893356	754.115967	4.060853
893.973206	-72.803627	643.668335	-25.725010
894.356628	-13.199366	695.233093	-18.277029
894.739990	51.303989	670.683289	-70.431976
895.123352	212.259369	665.772156	43.751869
895.506592	-87.714317	609.269775	-20.759584
895.889832	-137.444016	599.438232	-72.916748
896.272949	21.541903	646.124756	-0.902345
896.656067	100.874390	692.778503	-3.384167
897.039063	236.984253	685.414124	-18.277029
897.422058	-67.834335	596.980103	-10.830128
897.804993	-42.993977	582.229736	-18.277029
898.187866	123.167564	631.385010	-30.690720
898.570618	11.617891	560.098145	11.504935
898.953369	26.503218	560.098145	-13.312368
899.336121	11.617891	584.688416	46.231720
899.718689	76.094177	616.642273	-20.759584
900.101257	21.541903	574.853455	-30.690720
900.483704	98.396805	596.980103	-5.866095
900.866211	-80.258423	523.195190	-33.173798
901.248596	-167.302444	444.399109	-35.656849
901.630920	11.617891	417.290924	-82.856758
902.013184	-162.324997	414.825897	-38.140141
902.395386	123.167564	456.717468	-55.525852
902.777588	-65.349785	493.658020	-65.462891
903.159668	68.658310	530.577332	-30.690720
903.541687	-47.961151	454.253998	-28.207745
903.923645	90.963425	530.577332	9.023634
904.305603	-15.681705	441.935394	-82.856758
904.687500	-45.477573	321.086823	-40.623535
905.069275	-219.592499	385.239044	-25.725010
905.451050	-55.412766	476.421722	26.390291
905.832642	21.541903	377.840057	-40.623535
906.214294	83.529396	449.326752	-3.384167
906.595825	90.963425	412.360809	-25.725010
906.977417	48.824348	353.171051	53.670513
907.358826	48.824348	427.149658	36.311832
907.740234	58.742020	446.862976	-50.558037
908.121582	160.304993	451.790405	-20.759584
908.502869	115.737511	501.043457	-40.623535
908.884033	150.404022	441.935394	-0.902345
909.265198	-80.258423	256.869080	-18.277029
909.646301	-5.753106	427.149658	-38.140141
910.027344	73.615570	392.637177	-58.009991
910.408325	175.153564	454.253998	-40.623535
910.789246	28.983788	469.033234	-3.384167
911.170105	93.441315	417.290924	-48.074219
911.550903	-30.577681	316.149261	-45.590508
911.931641	6.655193	284.046082	-25.725010
912.312317	-60.381130	323.555450	-38.140141
912.692932	-92.685310	355.638428	-43.106899
913.073547	130.596985	404.965240	33.831570
913.453979	-52.928879	249.454956	-18.277029
913.834473	-62.865475	321.086823	-112.686867
914.214783	78.572685	311.211304	-18.277029
914.595154	192.472382	288.986176	9.023634
914.975464	1.692214	293.925629	-5.866095
915.355652	128.120605	328.492188	51.190975
915.735840	209.786316	340.832977	-10.830128
916.115845	187.524841	333.428772	16.467226
916.495972	-8.235133	242.039948	-33.173798
916.875854	26.503218	276.635193	-15.794714
917.255859	288.874146	412.360809	-8.348126
917.635620	-42.993977	209.898499	11.504935
918.015503	236.984253	385.239044	-18.277029
918.395203	259.227875	345.768311	-23.242245
918.774902	-125.007500	301.334473	-15.794714
919.154480	-152.371277	93.553711	-80.371559
919.534058	500.931763	488.733734	-5.866095
919.913574	-20.646566	251.926422	-97.769890
920.292969	19.061022	202.479004	-85.342049
920.672363	128.120605	187.637070	-23.242245
921.051636	-50.444962	264.282043	-0.902345
921.430969	38.904758	261.811066	13.986133
921.810181	207.313156	128.232941	-18.277029
922.189331	-33.060757	232.152161	36.311832
922.568420	-47.961151	190.110748	-48.074219
922.947388	135.549408	244.511703	18.948080
923.326416	-35.543938	130.709305	36.311832
923.705261	-60.381130	182.688858	26.390291
924.084106	498.469971	318.618073	-65.462891
924.462891	33.944618	160.417267	-87.827324
924.841675	33.944618	274.164703	-5.866095
925.220337	43.864761	279.105591	-20.759584
925.598938	58.742020	187.637070	-18.277029
925.977478	552.607544	313.680298	-23.242245
926.355957	-112.573807	53.895729	-25.725010
926.734436	-149.883087	76.206612	-0.902345
927.112732	459.069122	417.290924	1.579239
927.491089	43.864761	98.509193	6.542363
927.869324	-33.060757	182.688858	-38.140141
928.247559	88.485428	118.326736	-48.074219
928.625671	6.655193	61.333702	-45.590508
929.003723	66.179390	4.286252	-40.623535
929.381775	-90.199692	41.497307	-65.462891
929.759705	-30.577681	34.057125	-33.173798
930.137634	-164.813736	61.333702	-55.525852
930.515381	33.944618	16.692715	-0.902345
930.893250	491.084229	261.811066	-28.207745
931.270935	100.874390	58.854481	-55.525852
931.648560	-129.981827	46.457092	-53.041824
932.026123	-149.883087	-50.332157	-70.431976
932.403687	-102.628700	6.767753	-45.590508
932.781250	-67.834335	43.977253	-20.759584
933.158630	508.316650	202.479004	1.579239
933.536011	-65.349785	43.977253	-77.886475
933.913208	-192.196442	-0.676791	33.831570
934.290527	-42.993977	-27.982222	23.909748
934.667664	390.059387	128.232941	-33.173798
935.044800	56.262688	6.767753	-38.140141
935.421814	-23.129223	-85.116035	-18.277029
935.798889	95.919113	190.110748	28.870867
936.175842	-87.714317	14.211630	-15.794714
936.552673	56.262688	14.211630	36.311832
936.929504	-5.753106	16.692715	28.870867
937.306274	73.615570	41.497307	-48.074219
937.683044	58.742020	-10.604671	-0.902345
938.059570	-42.993977	-77.660751	-33.173798
938.436218	478.772400	155.466858	18.948080
938.812744	-122.520622	-119.920784	-115.173447
939.189148	-15.681705	26.615742	-77.886475
939.565613	11.617891	-57.784214	-13.312368
939.941956	-100.142662	-60.268444	-75.401619
940.318237	204.840164	-40.397827	66.066536
940.694458	115.737511	19.173424	-38.140141
941.070557	-122.520622	-85.116035	-92.798462
941.446655	53.783257	9.249149	-38.140141
941.822693	-10.717264	86.120010	-3.384167
942.198669	43.864761	26.615742	-95.284058
942.574646	-70.319000	-13.086902	-92.798462
942.950562	6.655193	6.767753	-18.277029
943.326294	-5.753106	-107.488190	-70.431976
943.702026	150.404022	-92.572556	9.023634
944.077698	-122.520622	-179.635223	-48.074219
944.453369	-87.714317	-152.258286	-55.525852
944.828918	16.580038	-97.544090	6.542363
945.204468	-10.717264	-77.660751	-60.494091
945.579834	-33.060757	11.730441	-67.947449
945.955261	19.061022	-70.206154	-50.558037
946.330627	-134.956467	-192.083496	-18.277029
946.705811	-38.027088	-80.145836	9.023634
947.081055	-38.027088	-182.124710	-62.978439
947.456177	128.120605	-172.167404	11.504935
947.831238	-77.773476	-152.258286	-53.041824
948.206238	31.464254	-67.721497	-67.947449
948.581238	-154.859573	-212.006577	-0.902345
948.956116	-5.753106	-132.356339	-40.623535
949.330933	-0.789500	-229.444992	-53.041824
949.705811	26.503218	-142.306442	-35.656849
950.080505	-97.656723	-142.306442	-77.886475
950.455139	-38.027088	-241.904236	-10.830128
950.829773	-152.371277	-244.396469	28.870867
951.204346	825.087585	192.584610	78.459862
951.578735	481.234955	-65.237221	4.060853
951.953186	98.396805	-102.515793	-15.794714
952.327515	-33.060757	-137.331039	1.579239
952.701843	-25.611982	1.804648	-45.590508
953.076172	-82.743614	-264.338043	28.870867
953.450195	-47.961151	-229.444992	21.428967
953.824341	51.303989	-122.407684	-45.590508
954.198486	-142.419296	-246.888809	-48.074219
954.572449	330.848572	31.576767	26.390291
954.946350	-23.129223	-172.167404	26.390291
955.320251	160.304993	-112.461021	-82.856758
955.694092	-100.142662	-226.953430	-82.856758
956.067871	46.344608	-197.063675	-60.494091
956.441589	209.786316	-154.746567	-82.856758
956.815125	-55.412766	-256.859009	11.504935
957.188721	-122.520622	-189.593567	1.579239
957.562256	-70.319000	-294.263611	11.504935
957.935730	-47.961151	-177.145844	-53.041824
958.309021	-60.381130	-231.936676	6.542363
958.682373	-55.412766	-209.515762	-80.371559
959.055664	-62.865475	-226.953430	-28.207745
959.428955	66.179390	-324.205322	-15.794714
959.802063	-97.656723	-224.461945	-65.462891
960.175110	-122.520622	-231.936676	-20.759584
960.548157	-139.931534	-246.888809	-62.978439
960.921143	-18.164152	-207.025085	-18.277029
961.294128	-15.681705	-197.063675	-43.106899
961.666809	-75.288498	-202.044296	-18.277029
962.039612	61.221245	-226.953430	-80.371559
962.412415	-117.546936	-256.859009	36.311832
962.785095	-95.171028	-294.263611	-0.902345
963.157715	21.541903	-266.831268	-43.106899
963.530151	-60.381130	-321.709778	-135.069702
963.902649	51.303989	-244.396469	-45.590508
964.275146	-62.865475	-226.953430	-58.009991
964.647522	-82.743614	-249.381256	4.060853
965.019714	-112.573807	-266.831268	-10.830128
965.392029	-3.271183	-271.817780	-60.494091
965.764160	63.700367	-304.242554	23.909748
966.136292	-72.803627	-334.189636	-55.525852
966.508423	-77.773476	-284.286743	-48.074219
966.880371	-45.477573	-354.163483	-23.242245
967.252319	249.342850	-157.234970	-15.794714
967.624207	-8.235133	-321.709778	-3.384167
967.996094	-57.896896	-296.758179	-67.947449
968.367737	105.828987	-261.844910	-75.401619
968.739441	26.503218	-304.242554	73.502869
969.111084	-75.288498	-236.920364	58.629284
969.482666	-80.258423	-379.140808	1.579239
969.854248	-72.803627	-404.129822	-5.866095
970.225586	-65.349785	-269.324615	-13.312368
970.596985	-20.646566	-261.844910	-23.242245
970.968323	9.136594	-296.758179	-30.690720
971.339661	138.025208	-301.747650	-8.348126
971.710754	271.582306	-264.338043	-85.342049
972.081909	189.998520	-251.873825	4.060853
972.453064	53.783257	-304.242554	-102.741875
972.824097	390.059387	-174.656570	11.504935
973.194946	-105.114853	-434.131592	-18.277029
973.565918	24.022545	-341.678833	-53.041824
973.936768	53.783257	-344.175537	-105.227890
974.307556	-72.803627	-371.646515	-18.277029
974.678284	-60.381130	-384.137756	-82.856758
975.048828	78.572685	-304.242554	-95.284058
975.419495	63.700367	-339.182495	-5.866095
975.790039	73.615570	-351.666321	-5.866095
976.160522	83.529396	-346.672333	33.831570
976.530884	-20.646566	-454.142120	-35.656849
976.901245	95.919113	-431.630768	-55.525852
977.271606	-40.510479	-416.628479	-35.656849
977.641846	276.523132	-294.263611	-8.348126
978.012024	115.737511	-379.140808	-18.277029
978.382019	-3.271183	-341.678833	6.542363
978.752136	422.108826	-271.817780	61.108383
979.122131	256.756714	-294.263611	-65.462891
979.492065	-67.834335	-436.632538	-35.656849
979.861877	-38.027088	-389.135132	83.416580
980.231689	-52.928879	-359.157898	-53.041824
980.601440	-35.543938	-429.130066	-13.312368
980.971191	73.615570	-339.182495	18.948080
981.340820	-10.717264	-464.150055	1.579239
981.710266	16.580038	-426.629456	-97.769890
982.079773	93.441315	-364.152985	-15.794714
982.449280	-5.753106	-529.248108	23.909748
982.818604	138.025208	-349.169281	-35.656849
983.187866	-10.717264	-384.137756	-38.140141
983.557129	-112.573807	-491.681885	-70.431976
983.926331	-33.060757	-456.643982	46.231720
984.295471	-174.769485	-464.150055	-53.041824
984.664612	-152.371277	-511.713928	18.948080
985.033569	-35.543938	-409.128784	-67.947449
985.402527	4.173823	-389.135132	-70.431976
985.771362	192.472382	-429.130066	6.542363
986.140259	115.737511	-331.693390	-20.759584
986.508911	41.384811	-416.628479	-58.009991
986.877625	232.040009	-244.396469	-80.371559
987.246277	-87.714317	-454.142120	-15.794714
987.614929	56.262688	-371.646515	-67.947449
987.983459	4.173823	-369.148560	-90.312836
988.351807	-15.681705	-269.324615	6.542363
988.720215	-137.444016	-446.637207	-33.173798
989.088623	-70.319000	-526.742859	-95.284058
989.456909	66.179390	-426.629456	-13.312368
989.825012	38.904758	-406.629395	-5.866095
990.193115	-70.319000	-509.209473	-53.041824
990.561279	160.304993	-469.154816	-5.866095
990.929321	-57.896896	-451.640350	-72.916748
991.297302	71.136856	-366.650726	4.060853
991.665100	-82.743614	-504.200928	-55.525852
992.033020	98.396805	-389.135132	-33.173798
992.400818	-115.060249	-436.632538	-5.866095
992.768494	78.572685	-334.189636	-40.623535
993.136047	53.783257	-436.632538	-60.494091
993.503723	-97.656723	-549.294006	-10.830128
993.871277	138.025208	-361.655365	-5.866095
994.238770	-85.228912	-476.662872	-25.725010
994.606140	-60.381130	-519.227722	13.986133
994.973450	-125.007500	-449.138733	-38.140141
995.340759	-57.896896	-511.713928	-67.947449
995.708008	48.824348	-484.171722	-87.827324
996.075195	-187.216827	-496.689026	-15.794714
996.442200	-62.865475	-484.171722	-75.401619
996.809265	-45.477573	-491.681885	-60.494091
997.176270	-47.961151	-469.154816	9.023634
997.543152	-70.319000	-516.722900	41.272049
997.910095	-67.834335	-594.425964	6.542363
998.276733	-18.164152	-439.133575	16.467226
998.643494	-87.714317	-579.377808	-28.207745
999.010193	-147.395142	-549.294006	-38.140141
999.376831	83.529396	-511.713928	36.311832
999.743286	-142.419296	-536.764343	-82.856758
1000.109802	103.351608	-524.237671	6.542363
1000.476257	-67.834335	-586.901184	-23.242245
1000.842651	-87.714317	-591.917603	-70.431976
1001.208923	19.061022	-459.145996	-13.312368
1001.575134	-62.865475	-474.160065	-48.074219
1001.941284	-35.543938	-617.006226	31.351336
1002.307434	-67.834335	-459.145996	-35.656849
1002.673523	-18.164152	-586.901184	-23.242245
1003.039429	-75.288498	-536.764343	-58.009991
1003.405334	165.255005	-506.705170	18.948080
1003.771179	-172.280457	-586.901184	-8.348126
1004.137024	51.303989	-464.150055	-45.590508
1004.502808	-87.714317	-581.885254	-33.173798
1004.868408	-23.129223	-509.209473	-53.041824
1005.234009	-169.791397	-539.270142	-55.525852
1005.599609	147.928452	-509.209473	-90.312836
1005.965149	28.983788	-637.086121	-58.009991
1006.330444	-80.258423	-514.218201	-0.902345
1006.695862	-40.510479	-489.178375	23.909748
1007.061218	11.617891	-524.237671	16.467226
1007.426453	147.928452	-536.764343	63.587513
1007.791626	9.136594	-486.675018	-33.173798
1008.156677	53.783257	-501.696838	28.870867
1008.521729	110.783455	-536.764343	38.791992
1008.886780	-38.027088	-539.270142	-10.830128
1009.251709	-85.228912	-519.227722	-30.690720
1009.616577	-30.577681	-614.497070	-58.009991
1009.981384	-15.681705	-649.640076	-70.431976
1010.346130	150.404022	-461.647797	-38.140141
1010.710754	234.512177	-421.628876	1.579239
1011.075439	236.984253	-451.640350	13.986133
1011.439941	-125.007500	-692.345764	-10.830128
1011.804443	-23.129223	-511.713928	43.751869
1012.168884	-132.469025	-541.776001	-48.074219
1012.533325	-159.836365	-657.173645	4.060853
1012.897522	6.655193	-504.200928	-35.656849
1013.261780	-197.176636	-639.596619	-8.348126
1013.626038	-62.865475	-617.006226	-0.902345
1013.990112	-35.543938	-594.425964	-3.384167
1014.354187	-8.235133	-619.515869	21.428967
1014.718140	-18.164152	-662.196838	-45.590508
1015.082153	76.094177	-439.133575	23.909748
1015.446045	138.025208	-511.713928	18.948080
1015.809937	-0.789500	-652.151001	-85.342049
1016.173523	-92.685310	-556.813416	-20.759584
1016.537170	16.580038	-619.515869	1.579239
1016.900879	38.904758	-632.065613	-43.106899
1017.264404	-38.027088	-619.515869	1.579239
1017.627991	-13.199366	-601.951538	-48.074219
1017.991333	-80.258423	-599.442810	-40.623535
1018.354675	71.136856	-617.006226	1.579239
1018.718018	-30.577681	-459.145996	-15.794714
1019.081299	103.351608	-501.696838	13.986133
1019.444397	58.742020	-516.722900	-72.916748
1019.807495	38.904758	-642.107300	-58.009991
1020.170593	-70.319000	-637.086121	-25.725010
1020.533691	140.501175	-521.732605	-25.725010
1020.896606	21.541903	-559.320129	-55.525852
1021.259460	-25.611982	-544.281982	11.504935
1021.622253	-45.477573	-576.870117	13.986133
1021.985046	-20.646566	-629.555420	6.542363
1022.347778	-70.319000	-529.248108	-45.590508
1022.710327	-25.611982	-596.934448	-48.074219
1023.072876	-177.258774	-549.294006	-20.759584
1023.435364	-197.176636	-576.870117	-8.348126
1023.797852	-3.271183	-576.870117	21.428967
1024.160278	-132.469025	-712.454956	31.351336
1024.522461	-132.469025	-654.662292	-53.041824
1024.884766	-224.575104	-611.987732	11.504935
1025.246948	-85.228912	-647.129028	-167.415741
1025.609131	-125.007500	-649.640076	-43.106899
1025.971069	76.094177	-534.258728	13.986133
1026.333130	-192.196442	-644.618103	-67.947449
1026.694946	157.829834	-489.178375	-70.431976
1027.056885	236.984253	-431.630768	-97.769890
1027.418823	-85.228912	-622.025574	-45.590508
1027.780396	-18.164152	-652.151001	-18.277029
1028.142090	56.262688	-594.425964	-8.348126
1028.503784	-122.520622	-627.045288	-45.590508
1028.865479	-117.546936	-579.377808	-67.947449
1029.226807	-75.288498	-599.442810	-38.140141
1029.588135	-85.228912	-642.107300	-82.856758
1029.949707	-92.685310	-679.781616	-97.769890
1030.310913	63.700367	-536.764343	-3.384167
1030.672241	63.700367	-586.901184	-30.690720
1031.033325	24.022545	-599.442810	11.504935
1031.394531	172.679016	-524.237671	-97.769890
1031.755493	16.580038	-586.901184	11.504935
1032.116577	-92.685310	-647.129028	4.060853
1032.477417	58.742020	-594.425964	33.831570
1032.838257	-70.319000	-654.662292	4.060853
1033.199097	-42.993977	-601.951538	-62.978439
1033.559937	38.904758	-591.917603	-40.623535
1033.920654	-72.803627	-614.497070	9.023634
1034.281128	-47.961151	-627.045288	-48.074219
1034.641724	177.628021	-504.200928	-35.656849
1035.002197	311.099274	-481.668579	-67.947449
1035.362671	130.596985	-551.800354	-20.759584
1035.722900	-65.349785	-674.756714	-8.348126
1036.083252	110.783455	-509.209473	-58.009991
1036.443481	-125.007500	-609.478516	-97.769890
1036.803711	-102.628700	-644.618103	-50.558037
1037.163940	316.037231	-496.689026	-62.978439
1037.523804	78.572685	-554.306824	-55.525852
1037.883789	-117.546936	-752.697021	-20.759584
1038.243774	-33.060757	-677.269104	-5.866095
1038.603638	95.919113	-551.800354	-60.494091
1038.963257	9.136594	-519.227722	-30.690720
1039.323120	-154.859573	-579.377808	-67.947449
1039.682861	-177.258774	-609.478516	38.791992
>>>>>End Processed Spectral Data<<<<<
