Jaz Data File
++++++++++++++++++++++++++++++++++++
Date: Wed Dec 03 21:15:22 2014
User: jaz
Dark Spectrum Present: Yes
Reference Spectrum Present: Yes
Processed Spectrum Present: No
Spectrometers: JAZA2310
Integration Time (usec): 709000 (JAZA2310)
Spectra Averaged: 1 (JAZA2310)
Boxcar Smoothing: 0 (JAZA2310)
Correct for Electrical Dark: Yes (JAZA2310)
Strobe/Lamp Enabled: No (JAZA2310)
Correct for Detector Non-linearity: Yes (JAZA2310)
Correct for Stray Light: No (JAZA2310)
Number of Pixels in Processed Spectrum: 2048
>>>>>Begin Processed Spectral Data<<<<<
W	D	R	S
188.301102	0.000000	0.000000	0.000000
188.764923	0.000000	0.000000	0.000000
189.228699	-120.074440	-79.558281	-142.359085
189.692459	-104.658340	-135.748077	-87.654160
190.156158	-103.663933	-75.582191	-77.713333
190.619812	-48.001945	-65.146690	-90.139664
191.083435	41.344078	21.744568	26.563257
191.547043	4.132927	0.406287	-13.139421
192.010590	35.887985	-16.471685	-40.450371
192.474091	35.887985	15.790623	4.233749
192.937561	2.147754	8.843328	-45.417465
193.401001	38.864296	58.944962	19.121069
193.864410	68.617462	56.961483	73.675560
194.327759	78.531982	63.903164	100.934219
194.791077	49.775436	22.737104	21.601812
195.254349	-1.326593	41.587681	4.233749
195.717575	-13.240138	16.286674	-20.586615
196.180786	50.271336	11.324502	-50.384846
196.643951	9.095837	19.760120	68.718170
197.107071	6.118168	3.880397	-33.000656
197.570145	45.807808	35.139431	-23.069132
198.033203	14.058195	10.332180	-10.657187
198.496216	6.118168	31.666885	-82.683464
198.959167	7.607089	-47.261253	21.601812
199.422089	37.872166	-24.912354	-5.693169
199.884979	-20.687346	-38.320724	-77.713333
200.347855	17.035599	5.865647	-50.384846
200.810654	16.043238	39.603897	78.632675
201.273422	3.140214	-15.478643	29.043690
201.736160	66.138672	79.766876	81.110939
202.198853	25.470404	23.233366	19.121069
202.661514	25.966509	21.248697	34.004513
203.124130	-26.149302	-14.982195	9.196651
203.586700	43.824028	51.010662	56.322697
204.049240	22.493423	51.010662	81.110939
204.511734	-10.757901	16.782854	-55.352783
204.974197	6.118168	41.091709	29.043690
205.436615	-38.067879	2.887950	6.715252
205.899002	-5.297372	9.835675	-0.729434
206.361343	-32.108219	-4.557353	6.715252
206.823654	-44.524971	-6.046445	-13.139421
207.285919	-1.326728	75.801239	48.884232
207.748123	-50.982372	-11.507178	-3.211249
208.210327	-19.197882	-13.492743	11.677810
208.672485	-2.815469	-13.492877	-92.625145
209.134583	27.950748	49.523098	-37.967117
209.596649	-21.680342	-15.478643	-62.805344
210.058670	-17.211857	-16.968147	-52.868759
210.520676	-58.931332	-25.408886	-50.384846
210.982635	-15.226031	-11.010493	-55.352783
211.444534	-33.101410	-9.521411	-15.621625
211.906403	36.880016	62.415783	-0.729434
212.368240	32.415752	56.961483	-33.000656
212.830048	-35.087975	-3.068298	-70.258858
213.291779	31.423512	51.506554	95.979080
213.753494	-22.673353	-26.898506	6.715252
214.215179	1.155143	-18.954031	-35.483837
214.676819	-44.524971	-37.327179	-18.104067
215.138412	-68.372047	-27.395189	11.677810
215.599960	-11.254448	33.651340	36.484768
216.061493	-18.204927	23.729219	100.934219
216.522949	16.539419	11.324502	-3.211249
216.984406	-11.750864	53.490208	41.444839
217.445801	-33.101410	25.217697	11.677810
217.907166	18.027807	38.115780	56.322697
218.368484	3.140484	-14.982195	26.563257
218.829773	2.147889	45.059647	4.233749
219.291031	-31.115047	-40.307465	26.563257
219.752228	-17.211857	-22.926134	31.524153
220.213379	14.058330	34.643406	1.752278
220.674500	-51.976021	-21.436615	-25.551889
221.135574	-26.149302	-9.025014	-60.321007
221.596634	-37.074471	-22.429623	-67.774200
222.057648	-25.156094	-10.017813	-35.483837
222.518600	-54.956917	-35.837425	-10.657187
222.979553	-53.466450	-36.830677	-122.460434
223.440430	26.958839	15.294435	11.677810
223.901276	6.614434	18.767941	51.363869
224.362076	3.636775	-27.891607	-40.450371
224.822845	-65.887474	-57.196880	-3.211249
225.283569	10.088449	-15.478778	21.601812
225.744278	-57.937565	-23.422783	-100.082489
226.204910	21.997292	4.376682	-37.967117
226.665512	-16.715528	-1.082815	-18.104067
227.126114	3.140484	-17.464476	-97.596687
227.586639	18.027807	-12.500019	-82.683464
228.047119	16.043102	7.850829	31.524153
228.507568	10.088449	54.977943	41.444839
228.967972	-8.772159	-37.824085	-25.551889
229.428345	1.651586	-15.975095	-40.450371
229.888687	-37.074471	-2.571820	-45.417465
230.348984	-40.054611	-5.053713	-25.551889
230.809219	-9.765089	7.354574	-57.836773
231.269440	-14.729586	-4.060997	71.196854
231.729614	-45.021538	-12.003462	95.979080
232.189758	24.478050	27.202230	-20.586615
232.649841	-1.326593	40.595730	-10.657187
233.109894	-1.326593	-11.010763	11.677810
233.569901	31.423512	23.729219	46.404491
234.029892	33.903740	31.667021	4.233749
234.489822	2.643919	23.729486	19.121069
234.949707	-35.584457	11.324772	-23.069132
235.409561	38.368164	37.123768	29.043690
235.869385	-9.268824	20.256273	-3.211249
236.329163	-25.156094	9.339437	-18.104067
236.788895	-38.067879	-13.989178	-42.933865
237.248581	27.454660	6.858179	-8.175058
237.708237	-16.715393	19.759987	-8.175058
238.167847	-31.611496	-26.898640	11.677810
238.627441	-4.801145	29.682772	14.159000
239.086960	-17.211857	3.383973	16.640085
239.546463	-28.135630	36.627625	31.524153
240.005920	-3.808299	14.798242	51.363869
240.465332	-33.598145	-40.803993	-8.175058
240.924698	-31.611631	20.256273	-8.175058
241.384033	-21.680475	-36.830544	4.233749
241.843338	-39.557957	-7.039195	6.715252
242.302597	-54.956783	-5.550212	-70.258858
242.761810	45.807808	42.083649	-25.551889
243.220993	-11.254313	24.721586	43.924786
243.680115	-5.793874	28.194538	-57.836773
244.139221	-35.087837	-3.564511	19.121069
244.598282	-19.694365	-3.564511	-60.321007
245.057297	-30.121893	-15.975095	-18.104067
245.516266	7.607089	-48.751431	-80.198418
245.975189	-45.518238	-34.844189	-45.417465
246.434082	-21.183706	-37.327446	-18.104067
246.892944	7.607089	-21.436615	-77.713333
247.351761	-10.757901	-11.010629	-124.947441
247.810516	73.079285	90.174995	16.640085
248.269272	9.095837	27.202230	19.121069
248.727951	69.608940	36.131611	128.180542
249.186600	-69.862900	7.850829	9.196651
249.645218	-35.087975	-13.989313	-40.450371
250.103790	18.524244	7.354574	-5.693169
250.562317	-60.421940	1.895216	-55.352783
251.020813	-74.832222	12.317078	-40.450371
251.479279	-29.625320	-52.725689	-20.586615
251.937668	-48.001945	-14.982330	-13.139421
252.396057	-33.598011	-8.528485	4.233749
252.854385	-46.511787	-6.542953	16.640085
253.312683	-12.247284	48.531147	58.802025
253.770920	-45.021538	-42.294003	-35.483837
254.229126	-53.963089	-19.450512	16.640085
254.687302	-18.204927	-35.340805	26.563257
255.145432	-70.359673	-26.401960	29.043690
255.603500	-23.666519	-48.254700	-37.967117
256.061584	2.147754	23.729486	6.715252
256.519592	-22.673353	-16.471685	31.524153
256.977570	-12.247284	-13.989313	-60.321007
257.435455	-39.061306	-12.003462	-62.805344
257.893372	-8.275902	4.376682	-8.175058
258.351196	-12.247284	-19.450512	-50.384846
258.808990	-36.577976	39.107639	14.159000
259.266754	-37.571239	-25.905420	-50.384846
259.724487	90.922852	118.912331	78.632675
260.182190	-15.722346	27.698320	34.004513
260.639832	-22.176981	-15.975095	14.159000
261.097443	-46.511787	-35.837425	6.715252
261.554993	-8.275902	0.406287	9.196651
262.012512	28.446966	56.961483	-23.069132
262.469971	8.103612	-42.790817	-25.551889
262.927429	-0.333670	30.178703	-28.034752
263.384827	-45.518238	-31.367727	19.121069
263.842194	-17.211857	17.279301	-20.586615
264.299530	-40.551270	-42.790951	-57.836773
264.756805	-41.047935	-11.010629	19.121069
265.214050	-10.758036	21.248697	11.677810
265.671234	92.904945	62.415649	-0.729434
266.128387	-30.121893	12.813292	-47.901169
266.585510	-55.950363	-72.103569	-82.683464
267.042572	-1.326593	3.383973	46.404491
267.499573	-13.240138	27.202501	-0.729434
267.956604	17.531504	54.481949	98.456635
268.413574	88.444992	50.514900	19.121069
268.870483	-0.830265	66.877800	1.752278
269.327362	-27.142389	-19.946997	-20.586615
269.784180	65.146858	93.148605	41.444839
270.240936	13.561991	57.457325	58.802025
270.697693	-26.149302	-1.579146	-25.551889
271.154419	-15.226031	-46.267826	16.640085
271.611053	-71.850716	-40.307327	-70.258858
272.067688	6.614434	34.147373	-8.175058
272.524292	1.651451	32.163071	-5.693169
272.980835	26.958569	-3.564646	-15.621625
273.437347	14.554529	19.263966	-10.657187
273.893799	-13.240138	18.767672	29.043690
274.350250	-41.544739	-6.046445	-52.868759
274.806610	-68.372047	-51.235409	66.239258
275.262939	28.943045	77.288422	6.715252
275.719238	-14.729450	21.248564	21.601812
276.175507	-6.786754	6.361915	29.043690
276.631714	6.614434	58.449131	-35.483837
277.087891	-30.618467	5.865647	9.196651
277.544067	-49.492138	-34.844055	-62.805344
278.000122	-84.772560	-27.395189	-18.104067
278.456177	-17.211857	20.256273	-18.104067
278.912201	22.493423	1.895216	-42.933865
279.368164	-31.611496	-58.190365	-95.110863
279.824097	-28.632191	-19.946997	-13.139421
280.279968	-33.598145	-28.884859	-52.868759
280.735840	-57.937565	-32.857635	16.640085
281.191620	-28.632055	-22.429623	-55.352783
281.647400	-25.652763	-7.535710	-50.384846
282.103149	-5.793874	35.139568	6.715252
282.558838	-0.830265	-13.989178	56.322697
283.014465	-5.793738	-16.968147	-18.104067
283.470062	-41.047935	-10.514083	-3.211249
283.925629	-31.115047	20.256273	-5.693169
284.381134	-40.054611	-6.542953	31.524153
284.836639	-4.304652	-0.090031	-60.321007
285.292053	-11.254313	14.302044	152.939255
285.747467	-68.372047	-55.209702	-8.175058
286.202820	-18.701403	-42.294140	-77.713333
286.658142	5.125758	-10.017813	16.640085
287.113434	-23.170002	-17.960945	-13.139421
287.568634	-11.254313	4.872963	-77.713333
288.023804	28.446966	37.619778	-52.868759
288.478973	-75.329178	-16.471685	-47.901169
288.934113	-20.687346	-13.492877	-95.110863
289.389130	-24.659565	-22.429623	11.677810
289.844208	-28.135359	-41.300793	-75.228355
290.299164	-39.061169	3.384243	-23.069132
290.754089	-30.618603	-26.401960	-15.621625
291.208984	-36.081348	-3.068298	-35.483837
291.663879	21.501154	34.147373	88.545403
292.118683	-34.094749	-19.947268	31.524153
292.573456	-26.645844	43.571671	-50.384846
293.028198	-36.081215	2.887680	-85.168755
293.482849	-37.074604	-25.905420	-42.933865
293.937561	-64.893593	-9.521411	-102.568527
294.392151	76.053467	119.902985	76.154167
294.846741	-14.233008	11.820724	68.718170
295.301239	-51.479259	-27.891607	-25.551889
295.755737	-48.995541	0.406152	-15.621625
296.210175	-14.729586	-29.381424	-105.054680
296.664581	-12.247149	1.895216	-35.483837
297.118958	-36.081348	-61.171581	-23.069132
297.573242	-41.544601	-32.857635	-42.933865
298.027557	-6.290244	-0.586489	4.233749
298.481812	-45.021538	1.398911	-10.657187
298.935974	5.621898	-0.090166	-13.139421
299.390137	43.328075	7.850829	108.366234
299.844238	-12.247284	-35.837425	66.239258
300.298340	-37.571106	-5.053713	31.524153
300.752350	-48.995270	-38.320858	-0.729434
301.206360	34.399776	-28.388298	-67.774200
301.660278	3.140484	-5.053713	-50.384846
302.114197	-43.034634	-36.334049	-82.683464
302.568054	-67.875145	-23.422783	-42.933865
303.021881	-16.218935	-24.415827	-18.104067
303.475677	4.629210	-3.564511	34.004513
303.929413	-16.715528	1.398911	53.843399
304.383118	69.609077	103.554398	46.404491
304.836761	-18.701267	-17.961081	1.752278
305.290375	23.485813	73.818329	83.589241
305.743958	-54.956783	-4.557353	-82.683464
306.197510	-31.115047	-18.954031	-23.069132
306.650970	0.162515	53.986214	16.640085
307.104431	-11.254313	11.820724	-60.321007
307.557800	47.791653	14.798242	9.196651
308.011169	-65.887474	-25.408886	-55.352783
308.464508	-1.326593	-12.003462	-72.743622
308.917755	-26.645844	-16.968012	31.524153
309.371063	-16.715258	-31.367727	-33.000656
309.824219	7.607089	-4.060997	16.640085
310.277374	-24.163040	-54.712784	-57.836773
310.730499	-27.142389	-43.287498	38.964787
311.183563	30.927454	39.603626	31.524153
311.636597	-19.694365	15.294435	-77.713333
312.089569	-31.115047	-24.415691	-50.384846
312.542511	117.678230	116.435349	172.739029
312.995422	-29.625185	-48.751431	-30.517721
313.448273	23.485813	13.805707	24.082586
313.901093	-47.008503	12.813292	-87.654160
314.353882	26.462473	3.384243	51.363869
314.806580	-3.808299	-7.039195	-52.868759
315.259308	-36.081348	-11.507178	-0.729434
315.711975	-29.625185	-54.712784	-80.198418
316.164581	24.974297	30.178703	78.632675
316.617126	-7.779515	-3.564646	-8.175058
317.069672	-23.666519	-11.010763	-77.713333
317.522156	-8.772159	11.324502	-25.551889
317.974579	-44.028145	-31.864449	-45.417465
318.427002	-26.645708	1.895351	-52.868759
318.879333	16.043102	55.969654	78.632675
319.331665	-48.001945	-11.507178	-50.384846
319.783936	-34.591358	-53.719227	-95.110863
320.236176	-64.893723	-39.314018	31.524153
320.688354	-9.765224	-9.521411	-0.729434
321.140503	-52.472645	-10.514083	-77.713333
321.592651	13.065784	35.635323	1.752278
322.044647	-5.297372	-17.961081	-90.139664
322.496704	-44.028145	-38.320724	-45.417465
322.948639	-63.403137	-17.464611	-30.517721
323.400604	-1.326593	33.651340	1.752278
323.852509	4.133197	85.218971	58.802025
324.304352	-16.715258	-23.422783	21.601812
324.756165	1.155143	37.123768	-13.139421
325.207916	-42.041275	-25.905420	-37.967117
325.659668	14.058330	-0.090031	1.752278
326.111328	7.607089	-2.571685	-75.228355
326.562988	-6.786619	-44.777710	-37.967117
327.014557	-37.571373	-0.090166	-30.517721
327.466156	-7.282862	20.752420	71.196854
327.917664	-22.673353	19.263830	-115.000206
328.369110	-42.537952	21.744568	4.233749
328.820557	-22.673353	12.316943	-82.683464
329.271942	-34.094749	-12.499749	-10.657187
329.723297	-38.564522	3.383973	-20.586615
330.174561	-20.687346	14.301908	29.043690
330.625854	-4.304923	-3.068298	-35.483837
331.077026	-64.893593	-19.450512	-60.321007
331.528229	-14.233008	16.782854	63.760235
331.979370	8.599726	-14.982195	36.484768
332.430450	4.629210	20.256273	58.802025
332.881500	-55.453571	-17.464611	-15.621625
333.332489	-9.765224	18.767941	38.964787
333.783478	39.360016	86.210045	162.839951
334.234406	-67.378120	4.872963	-0.729434
334.685303	-10.261493	14.302044	21.601812
335.136078	-45.021538	-51.235275	36.484768
335.586914	-19.197882	-4.060997	130.656784
336.037659	38.864025	63.407104	78.632675
336.488342	-26.645844	-5.550212	68.718170
336.939026	-31.611767	-32.857635	-20.586615
337.389648	-39.061306	-10.017813	11.677810
337.840240	-25.156094	-6.046580	-5.693169
338.290771	-41.544601	6.361915	-8.175058
338.741272	17.035599	42.083649	71.196854
339.191681	32.911797	62.911446	-3.211249
339.642120	4.629479	-0.090031	71.196854
340.092468	32.911797	22.737104	46.404491
340.542816	-45.021538	-1.082815	-3.211249
340.993103	-17.708323	-17.960945	-28.034752
341.443329	-16.218935	-35.340805	58.802025
341.893555	-66.384354	-19.947132	1.752278
342.343689	-44.524837	-20.940117	-35.483837
342.793793	-36.577839	-15.975230	-47.901169
343.243866	-35.087975	-17.961081	19.121069
343.693878	-18.204792	-32.361042	-10.657187
344.143890	-72.844444	1.895216	-25.551889
344.593842	27.950884	37.619778	103.411705
345.043732	-36.577976	27.202230	63.760235
345.493591	32.415752	33.155300	-5.693169
345.943359	-3.311949	4.376682	36.484768
346.393158	-19.197746	-15.975230	14.159000
346.842896	-41.544601	28.690620	26.563257
347.292542	-33.101410	15.294435	-13.139421
347.742218	-2.815739	47.539310	-20.586615
348.191803	-48.001945	9.339437	-30.517721
348.641357	-55.453571	22.737104	81.110939
349.090881	-38.564522	11.324502	66.239258
349.540314	-44.524837	38.115780	68.718170
349.989777	-16.218935	58.944962	115.797325
350.439148	-67.378258	4.376682	214.792191
350.888489	-70.856598	6.361915	283.993683
351.337799	-16.218935	97.608467	692.726440
351.787048	-74.335274	23.233095	1118.519409
352.236267	-43.531452	49.522827	1381.548584
352.685425	-38.067879	9.835945	1667.902832
353.134552	-70.856728	-0.090166	1578.225952
353.583649	-30.618603	87.696968	1706.650879
354.032684	7.607089	25.713802	1337.774292
354.481659	21.997292	110.986084	1091.676758
354.930634	-5.297372	115.939987	778.583679
355.379517	6.118168	131.790009	614.132935
355.828430	-13.736707	98.103706	367.921326
356.277222	-56.447289	112.967781	286.463776
356.726013	-25.652763	73.818329	246.931091
357.174774	-14.233008	122.874863	202.426544
357.623444	-16.715393	140.703842	286.463776
358.072113	1.155143	136.247025	249.402649
358.520721	-59.925110	133.275803	152.939255
358.969299	-52.969543	158.527451	98.456635
359.417786	-32.108219	138.227890	140.561096
359.866302	24.478050	202.569138	254.345367
360.314697	-30.618467	109.499741	217.264908
360.763123	-19.694231	157.042282	167.789627
361.211456	-2.319128	194.653778	251.873993
361.659760	-9.268689	186.242752	239.515915
362.108032	-11.254313	217.902145	306.220825
362.556244	-71.353516	181.789398	234.571869
363.004456	-47.008366	208.504959	348.183777
363.452576	-1.326593	262.889313	567.423889
363.900696	-60.421940	229.769836	1035.519531
364.348663	-7.779515	364.116425	1970.133789
364.796722	-48.001945	392.233643	3154.462646
365.244690	-4.304652	516.886292	4131.319824
365.692596	-34.591358	496.701813	4534.156250
366.140472	-24.659565	453.851074	4562.371094
366.588287	1.155143	475.033661	4341.166016
367.036102	-31.115047	400.617249	3639.296875
367.483826	-46.014942	377.930054	2453.875732
367.931549	-15.722346	397.165253	1713.913940
368.379181	-9.268554	397.658661	1130.717163
368.826843	-63.402866	360.169312	589.553345
369.274384	-63.403137	309.819885	486.219238
369.721924	-16.218935	372.996918	372.854858
370.169403	16.539419	417.380615	429.562195
370.616821	-26.645844	348.819427	303.751495
371.064270	-12.247284	358.195526	288.933807
371.511566	-41.544601	362.636261	288.933807
371.958923	6.118168	343.390472	251.873993
372.406158	-9.765224	337.467651	264.229767
372.853424	-26.645708	310.313690	180.162262
373.300568	-13.240273	360.662689	237.043930
373.747711	10.584682	421.324463	281.523621
374.194794	-19.197746	327.594940	195.006012
374.641846	-43.034634	412.943787	261.758789
375.088898	-50.982372	387.301849	288.933807
375.535828	-3.808299	389.767914	286.463776
375.982758	-31.611631	386.808685	333.376556
376.429596	13.562261	445.474518	427.097687
376.876465	-18.204927	333.025085	793.291138
377.323242	-14.233144	258.441772	1091.676758
377.769989	-19.197746	214.440063	1573.375854
378.216675	-13.736571	124.360878	2040.094360
378.663330	-60.421940	52.994335	2184.659424
379.109985	-25.156229	37.619778	2360.223389
379.556519	54.238533	100.581573	2513.858398
380.003052	-34.591358	69.356689	2333.791016
380.449524	-11.750729	48.035229	1757.479248
380.895996	-48.002083	31.171099	1573.375854
381.342377	-32.108356	61.424046	1262.325806
381.788727	-58.434376	72.331062	1091.676758
382.235046	-3.808299	112.967781	856.987671
382.681274	25.470135	175.850861	1057.499146
383.127533	-74.832222	114.949135	1101.438965
383.573669	-35.584728	203.063797	1362.096313
384.019836	-10.261493	258.441772	1345.071655
384.465912	-35.088108	250.039291	1208.735596
384.911957	-31.611631	276.725372	1086.795410
385.357971	-57.937702	204.052948	937.749756
385.803925	-47.505222	190.200897	648.528992
386.249847	-51.479259	235.208801	362.987701
386.695679	-48.995403	281.665894	348.183777
387.141541	-59.428013	272.772491	133.133041
387.587311	-4.304787	431.675598	279.053345
388.033051	3.636775	427.732513	254.345367
388.478729	-44.028145	428.225403	185.110535
388.924408	-44.524700	472.570892	95.979080
389.369995	5.621898	439.561279	76.154167
389.815552	-57.440758	417.873688	192.532257
390.261078	5.621898	475.526306	254.345367
390.706543	29.935324	492.270325	261.758789
391.152008	-40.054611	491.777771	227.155212
391.597351	-63.403000	559.695618	232.099838
392.042725	-22.176846	644.740234	185.110535
392.487976	1.155143	661.932617	224.682755
392.933289	-70.856728	663.406128	172.739029
393.378479	-24.163040	784.608276	222.210342
393.823639	17.035599	889.444641	372.854858
394.268768	-54.956783	795.393311	417.238617
394.713837	11.577000	818.427917	528.064697
395.158905	-21.183840	810.096985	574.801270
395.603851	-60.918636	835.576782	653.441040
396.048798	-49.989017	902.660889	724.628845
396.493683	-12.743574	1001.456055	768.776978
396.938568	-19.694365	1065.453491	704.998291
397.383392	32.415752	1104.507813	574.801270
397.828156	-62.906143	1022.468933	464.055115
398.272888	-46.014942	1009.764099	471.443939
398.717560	-26.149166	959.411438	288.933807
399.162201	-30.121893	1060.081909	214.792191
399.606781	-49.989017	1096.698853	246.931091
400.051361	-63.899857	1068.383179	110.843407
400.495819	-12.743710	1147.443604	170.264389
400.940308	-60.918636	1170.364990	195.006012
401.384705	-16.715528	1202.052734	232.099838
401.829102	16.539419	1237.137329	269.171295
402.273438	-28.135494	1338.401123	202.426544
402.717682	-70.359810	1358.831787	355.586121
403.161926	-52.472645	1374.394409	601.844116
403.606110	-27.142389	1439.529175	989.095398
404.050293	-43.531319	1547.318848	1871.124146
404.494385	-53.963223	1582.245361	3152.080322
404.938446	-48.498672	1720.347412	3549.158936
405.382477	-23.169867	1799.225952	3539.666504
405.826447	-49.492138	1883.827148	3273.510254
406.270386	-21.183706	1837.428223	2985.168213
406.714233	18.524244	1730.998291	2681.600586
407.158081	-25.652628	1738.743408	1989.439209
407.601868	-29.625185	1785.681519	1362.096313
408.045624	-2.815739	1933.580688	1140.473999
408.489319	9.095972	2032.998657	986.651367
408.933014	29.935188	2095.678711	888.814026
409.376617	-48.995403	2079.771729	636.246460
409.820190	-22.176981	2142.417480	589.553345
410.263702	17.531773	2250.735352	572.342224
410.707184	-26.149302	2381.982422	402.447449
411.150635	-41.544601	2397.354492	387.652863
411.594025	-15.226031	2352.192871	325.971619
412.037384	-34.094749	2282.964355	237.043930
412.480682	-43.034634	2334.890625	283.993683
412.923981	-32.604813	2608.448975	296.343079
413.367126	-54.956783	2856.826172	276.582947
413.810333	-63.403000	3020.142578	269.171295
414.253479	-12.247284	3053.535645	239.515915
414.696533	-51.976021	3005.350342	232.099838
415.139587	-54.956783	2952.366211	207.373016
415.582581	46.799942	3011.553223	301.282074
416.025543	-35.584728	2959.528320	227.155212
416.468414	-56.447289	3209.855469	454.201721
416.911285	-53.466450	3445.777344	621.504822
417.354065	63.163860	3856.866211	793.291138
417.796875	-95.211723	3765.968750	717.268250
418.239594	-57.440758	3824.682617	714.814453
418.682281	-2.815469	3863.964355	763.872986
419.124908	-46.015079	3889.040527	626.419128
419.567505	35.391964	4200.349121	729.535706
420.010071	-51.479259	4295.123535	454.201721
420.452545	-42.538090	4507.951660	380.254425
420.895020	-68.868950	4412.417480	358.053406
421.337372	-26.645844	4247.510742	362.987701
421.779785	71.591995	4120.126953	441.883118
422.222107	67.130066	4072.437744	461.591949
422.664368	0.658696	4152.223145	395.050720
423.106628	-6.290244	4442.074707	377.788025
423.548798	-44.524971	4715.681641	325.971619
423.990967	-40.551270	5101.938965	365.454407
424.433044	-4.801145	5237.106934	308.690063
424.875092	-26.149166	5123.932617	204.899887
425.317078	-3.311949	4999.406738	313.628052
425.759064	-1.822791	4834.416016	345.716125
426.200989	-6.290379	4629.252441	274.112579
426.642853	-21.183975	4487.251953	279.053345
427.084686	13.562261	4402.530273	370.388153
427.526459	-4.801145	4420.421387	325.971619
427.968201	-19.694500	4379.456055	340.780609
428.409912	-56.447155	4488.192383	390.118927
428.851563	-21.680475	4609.514648	286.463776
429.293121	-14.729586	4582.722656	340.780609
429.734711	-47.008503	4846.141602	407.378326
430.176239	-14.233008	4962.866699	301.282074
430.617706	-19.197746	4928.658203	395.050720
431.059113	-48.001945	5017.204102	387.652863
431.500488	-64.893723	4795.477539	496.067780
431.941833	-49.492279	4609.044922	461.591949
432.383087	-63.403137	4426.070313	399.981873
432.824341	-9.765224	4304.549316	530.525391
433.265533	-55.950363	4280.982422	493.605804
433.706726	-46.511787	3980.305664	638.703186
434.147827	-61.415607	3989.286621	807.995544
434.588867	-32.108219	4175.816406	1237.971558
435.029877	-37.571239	4646.167969	2549.829102
435.470825	-63.899994	5531.693848	5239.776367
435.911804	-6.786619	6464.391602	7187.292480
436.352661	-14.729450	7176.381836	7912.228516
436.793518	-6.786619	6678.918457	8058.564453
437.234283	36.384003	5975.240723	7449.286133
437.675049	-52.969681	5192.691895	7010.029297
438.115723	-43.034771	4750.423828	6381.864258
438.556396	3.636775	4503.248047	5066.700195
438.997040	-13.736571	4465.135742	3261.612061
439.437561	38.368164	4501.366211	2218.356445
439.878113	-79.802246	4462.312988	1638.829590
440.318573	-35.584591	4354.021973	1196.550659
440.759033	-34.094883	4444.428223	996.427612
441.199341	-11.750729	4586.013184	847.192139
441.639709	-59.924973	4547.930176	763.872986
442.079956	-19.197882	4679.051270	761.420837
442.520264	-8.275902	4753.240234	673.086609
442.960510	-32.604946	5103.343262	518.221008
443.400604	1.155143	5314.676270	709.906555
443.840759	-66.881233	5502.780273	574.801270
444.280762	-49.492138	5666.837402	589.553345
444.720825	-42.041409	5698.970703	547.747375
445.160767	12.073490	5998.002441	589.553345
445.600739	-60.421806	6285.184082	441.883118
446.040558	-15.722346	6343.096191	449.274475
446.480438	-30.121893	5896.237793	390.118927
446.920258	-13.240138	5414.133301	481.294708
447.359955	-34.591358	5007.837891	390.118927
447.799713	-39.061169	4960.992676	316.097015
448.239319	-44.028145	4925.377930	296.343079
448.678955	-35.087975	5056.536621	256.816650
449.118500	-18.204927	5086.495117	264.229767
449.558014	-9.268689	4960.055176	308.690063
449.997498	-80.299385	4835.823242	365.454407
450.436951	-68.371910	4857.398438	217.264908
450.876343	-31.115047	4901.472168	261.758789
451.315674	-15.722346	5077.133789	244.459412
451.754974	-49.492138	5040.618164	217.264908
452.194183	-23.666519	5240.846191	177.687912
452.633392	-47.008366	5304.398926	93.501289
453.072510	-33.101410	5359.979004	192.532257
453.511688	-48.001945	5380.990234	190.058548
453.950684	4.132927	5414.599121	281.523621
454.389740	1.651451	5295.522461	204.899887
454.828735	10.584682	5313.273926	296.343079
455.267639	-40.054478	5387.525391	204.899887
455.706543	-13.736571	5538.220703	180.162262
456.145325	41.344078	5784.151367	241.987640
456.584137	50.767368	5900.421387	239.515915
457.022858	-40.551270	5944.110352	105.888954
457.461578	0.658831	6147.011230	165.314774
457.900208	-62.906143	6400.055664	197.479660
458.338867	-11.254448	6641.033691	227.155212
458.777405	-64.893723	6929.967773	209.846176
459.215912	-24.163040	6987.123047	259.287689
459.654388	-9.268689	6923.513184	261.758789
460.092773	-48.995541	6415.794434	202.426544
460.531189	-30.618467	6140.053223	197.479660
460.969513	-30.121758	6333.831055	237.043930
461.407806	-44.524837	6557.367676	195.006012
461.846008	-45.021538	6689.080566	192.532257
462.284241	-43.531452	6277.768555	133.133041
462.722351	-43.034771	6044.442871	123.227509
463.160461	-10.757901	5983.602051	118.274200
463.598541	-7.283133	6007.291992	157.889740
464.036530	-3.808299	6181.337402	204.899887
464.474518	-29.128754	6065.799316	103.411705
464.912384	-56.944092	6060.691406	143.036957
465.350281	-24.659700	5923.662598	86.067444
465.788086	-44.028145	5919.014648	170.264389
466.225891	-78.311142	6117.780762	91.023399
466.663605	-46.015079	6412.091797	167.789627
467.101318	-21.183840	6704.784668	130.656784
467.539001	-63.403137	6919.825195	185.110535
467.976563	-7.779515	7511.391602	214.792191
468.414124	3.140484	7471.456543	204.899887
468.851593	-20.190853	7471.456543	190.058548
469.289063	-15.226031	7619.658691	187.584595
469.726440	-42.041275	7731.962402	237.043930
470.163849	-22.673353	7731.503418	145.512711
470.601135	-25.652763	7830.890625	227.155212
471.038422	-51.479126	7771.816895	190.058548
471.475677	-8.275767	7831.807129	239.515915
471.912811	-19.694365	8028.985352	306.220825
472.350006	-54.459866	8661.553711	234.571869
472.787048	-30.121893	8984.682617	180.162262
473.224121	-38.067879	9078.162109	209.846176
473.661072	-70.359673	8961.530273	145.512711
474.098053	-11.750864	8712.051758	172.739029
474.534943	-42.041275	8403.320313	229.627579
474.971802	-57.937702	8067.379883	244.459412
475.408630	-53.963089	7757.159180	269.171295
475.845367	-80.796249	7439.315918	241.987640
476.282104	-33.101543	7417.271973	274.112579
476.718750	-50.485760	7625.621094	237.043930
477.155426	61.180523	8297.972656	271.641998
477.591949	-35.087975	8831.621094	251.873993
478.028503	8.103342	9118.530273	259.287689
478.464966	-24.659565	9230.500000	249.402649
478.901428	-6.786619	9383.577148	298.812683
479.337860	-54.460003	9696.016602	209.846176
479.774170	-56.447289	9847.244141	266.700531
480.210510	-42.538090	9585.316406	274.112579
480.646698	-21.183840	9612.886719	207.373016
481.082947	-31.611767	9700.532227	239.515915
481.519073	-40.551270	9979.382813	281.523621
481.955200	-53.466450	10257.706055	195.006012
482.391266	-0.830265	10631.593750	313.628052
482.827301	-16.715393	10761.253906	259.287689
483.263306	-16.715528	10566.948242	239.515915
483.699188	-0.830265	10279.300781	375.321503
484.135101	-21.183840	9991.552734	372.854858
484.570923	-13.736571	9615.598633	229.627579
485.006744	-14.729450	9456.888672	318.565704
485.442413	-32.604946	9218.264648	239.515915
485.878174	53.742798	9356.869141	417.238617
486.313782	0.162515	9280.337891	345.716125
486.749390	-36.081215	9280.791016	358.053406
487.184998	-54.460003	9594.808594	355.586121
487.620453	-32.604946	10320.234375	325.971619
488.055939	-80.299248	11214.450195	385.186737
488.491333	-59.428150	12075.768555	365.454407
488.926727	-45.021538	12642.647461	362.987701
489.362030	-33.101410	12503.307617	436.954926
489.797302	-67.875015	12181.634766	367.921326
490.232513	7.110695	12068.205078	335.844574
490.667755	-37.571373	11595.019531	417.238617
491.102905	15.050724	11927.095703	505.914551
491.537964	-45.518238	12075.768555	545.287354
491.973022	15.546916	12234.989258	587.094788
492.407990	15.546916	12159.845703	609.217712
492.842957	43.824028	11431.195313	619.047546
493.277832	-55.950497	11223.840820	594.470032
493.712738	-7.283133	11637.400391	446.810974
494.147491	-49.989017	11860.285156	473.906769
494.582275	-37.074741	11913.735352	409.843597
495.017029	16.043238	11815.285156	515.760071
495.451660	-17.211857	11756.902344	427.097687
495.886292	-28.632191	12116.700195	414.773865
496.320831	-43.531319	12177.188477	412.308807
496.755402	-18.701267	12374.972656	486.219238
497.189850	-71.850578	12805.381836	325.971619
497.624298	-25.156229	13610.517578	375.321503
498.058655	-4.801145	14729.169922	528.064697
498.493042	-17.211857	15438.934570	513.298889
498.927368	-49.492279	15966.434570	505.914551
499.361572	42.832115	15990.098633	542.827209
499.795807	-9.268689	15701.233398	535.446228
500.229919	-24.163040	15387.159180	459.128632
500.664063	33.407703	14808.744141	390.118927
501.098083	-29.128754	14534.323242	392.584900
501.532104	-46.511654	13855.021484	360.520599
501.966064	-14.729586	14063.582031	370.388153
502.399994	5.125758	14300.595703	340.780609
502.833893	-40.551136	14817.095703	318.565704
503.267700	-84.275520	14459.958008	301.282074
503.701477	-46.014942	14631.102539	340.780609
504.135193	-53.963089	15535.455078	399.981873
504.568909	-72.844444	16582.650391	360.520599
505.002502	-35.584591	16703.890625	417.238617
505.436127	-21.680475	15896.314453	508.376099
505.869629	-34.094749	15047.785156	432.026367
506.303162	-15.226031	14314.247070	377.788025
506.736603	-17.211857	14015.536133	338.312653
507.169983	-41.544601	14230.129883	417.238617
507.603363	-41.047935	14303.677734	343.248352
508.036621	-22.176981	13904.421875	397.516479
508.469940	14.058330	13369.733398	449.274475
508.903107	14.554529	12768.589844	564.964844
509.336304	-48.002083	12211.870117	370.388153
509.769379	-17.708323	12144.722656	414.773865
510.202484	13.066053	12486.881836	441.883118
510.635529	-27.638941	12877.615234	493.605804
511.068481	-54.956783	13640.541992	518.221008
511.501434	-9.268689	14272.412109	493.605804
511.934265	-19.694231	14650.015625	466.517975
512.367126	17.531773	15497.288086	515.760071
512.799927	-44.524837	15391.546875	503.452942
513.232605	-76.820206	14830.282227	476.369507
513.665344	-47.008503	14453.795898	515.760071
514.097961	-9.765089	14240.702148	540.366943
514.530579	-32.604946	14074.599609	500.991211
514.963135	-15.226031	14312.486328	550.207336
515.395691	-3.808299	15011.324219	601.844116
515.828064	-47.505222	15451.662109	633.789978
516.260498	-54.956783	15708.248047	859.436401
516.692871	-30.618603	15702.110352	1435.016479
517.125183	33.407703	15536.333008	1851.791382
517.557373	-52.472778	15077.652344	2302.542480
517.989624	32.911797	15105.760742	3332.980469
518.421753	3.636775	15269.534180	3658.262939
518.853943	-64.893723	15534.577148	3622.698242
519.286072	-51.976021	15661.767578	3565.769043
519.718018	-22.176981	15319.573242	3610.840332
520.150024	-72.347641	14816.216797	3290.165527
520.581909	0.658831	14668.487305	3118.720703
521.013855	-35.584591	14516.725586	2676.812256
521.445679	-65.887474	14872.916016	2215.949951
521.877502	-61.912453	15022.746094	1665.480347
522.309204	-3.808299	15394.619141	1291.540527
522.740906	-36.577839	15702.110352	1030.634155
523.172546	-39.557957	15788.919922	957.314270
523.604187	-48.001945	15780.589844	874.126770
524.035767	-44.028145	15384.964844	834.945618
524.467224	-55.453571	14617.909180	859.436401
524.898682	-21.680342	13947.638672	795.742188
525.330078	-38.564522	13735.006836	687.816956
525.761475	-19.197746	14653.534180	665.720337
526.192749	-40.054478	16714.396484	665.720337
526.624023	-47.008503	19022.070313	690.271729
527.055237	-60.421940	19700.070313	626.419128
527.486389	-37.571239	19449.818359	638.703186
527.917542	-26.149302	18059.298828	628.876221
528.348572	10.088449	16774.351563	648.528992
528.779663	-58.931332	15762.617188	660.808899
529.210571	-21.183975	14924.332031	641.159729
529.641541	-15.225896	15023.624023	623.962097
530.072388	-42.041275	16043.119141	673.086609
530.503235	6.118168	17545.546875	795.742188
530.934082	-45.518105	18495.623047	751.611694
531.364746	-47.008366	18459.335938	781.035156
531.795532	-44.028145	18358.779297	869.230530
532.226135	-19.694365	18758.394531	986.651367
532.656738	-45.021538	19814.281250	1008.646057
533.087280	32.415482	21945.113281	1252.585083
533.517822	-16.218935	25973.964844	1369.391602
533.948242	15.546916	33113.257813	2273.687500
534.378662	-19.197882	40838.753906	7258.588867
534.809082	-37.571373	44974.839844	15918.101563
535.239319	-11.750729	42722.968750	22713.457031
535.669617	-25.652763	37841.914063	26632.173828
536.099792	-65.887337	41149.417969	28245.396484
536.529968	-70.359673	50073.984375	29293.386719
536.960083	-54.460003	57606.273438	30441.876953
537.390137	7.110830	62076.628906	31674.460938
537.820190	-73.341385	64166.066406	32699.148438
538.250183	-49.989017	64939.406250	31042.710938
538.680115	-62.906143	64680.511719	26186.244141
539.109985	75.062088	63412.261719	20926.130859
539.539795	-40.054478	60534.558594	17043.314453
539.969543	-34.094749	56936.839844	14169.653320
540.399292	25.966509	52540.023438	12133.918945
540.828979	-20.687346	46857.078125	10372.266602
541.258606	-13.240138	39971.625000	8708.281250
541.688171	-27.638941	34320.671875	7334.441895
542.117737	-3.808299	30540.376953	5873.787109
542.547302	-36.081348	27815.900391	4604.679199
542.976685	-41.047935	24867.767578	3741.200439
543.406128	-3.311949	21661.884766	3040.042236
543.835388	-72.347504	19079.359375	2511.459961
544.264771	-62.906284	18021.263672	2271.282471
544.693970	-44.028145	17823.640625	2150.949219
545.123230	-20.190853	19216.244141	3873.764648
545.552307	-25.156094	24354.572266	12604.810547
545.981506	38.864025	30356.984375	20463.855469
546.410583	-30.121758	36330.414063	23479.791016
546.839539	-76.820076	35665.597656	24638.591797
547.268555	6.118168	28358.517578	24059.892578
547.697449	58.701427	23382.507813	24952.568359
548.126282	-39.061169	20232.753906	25827.109375
548.555054	-37.571239	18209.257813	25926.843750
548.983887	-22.673489	16917.001953	25127.341797
549.412598	-10.261493	15916.913086	21351.498047
549.841309	52.255032	15501.675781	15317.250977
550.269958	-23.666653	15248.022461	9953.555664
550.698486	15.050724	15166.798828	7295.372070
551.127075	13.065784	14926.967773	5333.224609
551.555481	-68.868950	14734.886719	3968.352051
551.983948	-38.067879	14450.715820	3125.869873
552.412292	-39.061306	14674.203125	2600.163818
552.840698	-60.421940	14822.369141	2220.762939
553.268860	-22.176981	15241.440430	1965.306641
553.697205	-90.737602	15283.580078	1670.325073
554.125366	6.614704	15779.714844	1527.283081
554.553467	-48.498672	16153.958008	1289.106567
554.981628	-16.218800	16906.500000	1281.803589
555.409607	-1.822791	16945.443359	1216.045776
555.837646	-57.440758	16167.099609	1045.289063
556.265564	21.501154	15938.386719	1018.419434
556.693481	-45.518238	15677.555664	1013.532898
557.121338	-25.156094	15663.960938	1006.202393
557.549133	-64.396721	15436.303711	952.423828
557.976929	-31.115047	15799.002930	825.146729
558.404602	26.958839	17169.425781	883.918762
558.832275	-28.135494	19345.273438	793.291138
559.259888	-50.982372	21581.998047	771.228577
559.687439	-0.830265	22514.302734	822.696777
560.114929	-39.557957	21942.917969	771.228577
560.542419	-64.396721	20915.738281	741.800903
560.969788	-40.551270	19496.189453	776.132080
561.397156	-11.750864	18346.974609	798.193054
561.824524	-53.963089	17561.726563	758.968628
562.251770	-44.524971	17515.373047	795.742188
562.679016	-77.317184	17466.394531	702.544067
563.106140	-31.115047	18137.121094	712.360535
563.533264	39.856274	19427.072266	805.544983
563.960327	-7.282862	20487.195313	687.816956
564.387329	-46.015079	21896.361328	739.347961
564.814331	-30.618467	22152.486328	687.816956
565.241272	-52.472778	22119.531250	550.207336
565.668213	-12.247284	22269.832031	587.094788
566.094971	-52.472645	22156.000000	636.246460
566.521790	-35.087975	22626.470703	727.082336
566.948425	-29.128618	23938.638672	609.217712
567.375183	5.125758	25762.085938	584.636230
567.801819	5.621898	27652.728516	790.840088
568.228394	-31.115047	30506.992188	825.146729
568.654846	-31.611631	34488.269531	984.207092
569.081421	4.629479	39396.980469	1059.940918
569.507874	-26.645844	41697.082031	1013.532898
569.934265	-25.652763	41031.367188	998.871521
570.360596	-39.061306	38075.902344	1006.202393
570.786865	-56.447289	33913.519531	881.470947
571.213074	-47.505089	30498.980469	940.195435
571.639282	-44.028145	27810.117188	1033.076904
572.065430	-7.283133	25488.296875	1062.382690
572.491516	-26.645844	23862.736328	981.762695
572.917603	-37.074604	22259.285156	1023.305420
573.343567	-34.094749	21152.492188	1028.191284
573.769531	-56.447289	20634.830078	1079.472412
574.195435	-2.815739	20848.236328	1262.325806
574.621277	-62.906010	20867.957031	1379.117310
575.047119	-15.722346	20598.462891	1859.041504
575.472839	-40.551136	20766.718750	2300.138184
575.898560	27.454929	21181.000000	3854.836670
576.324158	-3.808299	21682.957031	6430.474609
576.749817	-4.304652	22162.154297	8637.760742
577.175293	-17.708458	22295.769531	9610.497070
577.600830	-30.618603	21784.378906	10493.609375
578.026306	5.125758	21434.986328	11710.856445
578.451721	17.531773	21506.511719	14257.750977
578.877136	-79.802246	21761.544922	16329.901367
579.302429	-31.611631	22072.511719	17003.941406
579.727661	-25.156094	22146.333984	17382.302734
580.152832	-21.183975	22105.466797	16134.996094
580.578064	-46.014942	22253.132813	14405.251953
581.003113	-78.311142	22485.714844	12726.785156
581.428223	-12.743710	22535.853516	11677.412109
581.853271	-15.226031	22775.630859	10491.363281
582.278198	-23.169867	22894.470703	8935.517578
582.703125	-23.170002	23197.443359	6689.410156
583.127930	8.599591	23863.179688	5010.512695
583.552795	21.997292	24667.011719	3672.485596
583.977539	10.088449	25413.890625	2777.317383
584.402283	-42.041275	26798.781250	2290.520508
584.826965	-5.297372	28265.097656	1943.581543
585.251587	24.974026	30415.296875	1713.913940
585.676208	-41.544601	32287.314453	1330.476074
586.100647	-79.802246	34947.019531	1264.760864
586.525208	-49.492138	37387.652344	1208.735596
586.949524	-22.673353	38577.375000	1164.860474
587.373962	-59.428150	38457.257813	1318.310913
587.798218	-19.197746	36113.386719	1728.438232
588.222534	-13.736571	30462.476563	3206.861328
588.646729	-46.511787	22893.587891	4933.209961
589.070984	-46.014942	15498.167969	6841.748047
589.495117	-62.409294	10519.792969	8626.383789
589.919128	-6.290379	8185.694336	10018.916016
590.343201	18.027807	7615.073730	10933.240234
590.767151	-65.390732	8384.173828	11563.655273
591.191101	33.407703	9815.205078	12062.737305
591.614990	-0.333940	11691.811523	12493.857422
592.038818	-51.976021	13704.113281	12318.418945
592.462524	-69.862762	15987.468750	11898.019531
592.886292	-21.183840	18272.212891	10628.323242
593.310059	1.651451	20745.248047	9277.941406
593.733582	-32.108356	22951.261719	7706.168945
594.157227	-26.149166	24949.158203	6347.130859
594.580750	-46.511787	26859.173828	5260.808594
595.004272	-60.421940	28790.574219	4334.099609
595.427673	-43.034771	30441.558594	3814.604492
595.851074	-82.287285	31991.222656	3404.298828
596.274353	-12.743710	33468.441406	3225.908203
596.697632	-47.008503	34595.550781	2789.275146
597.120911	-27.142389	35557.082031	2628.914307
597.544067	-0.830265	36333.070313	2509.061279
597.967224	-30.618467	37119.453125	2343.403564
598.390320	-39.061440	37691.031250	2054.562012
598.813354	81.010246	37861.000000	1953.238037
599.236328	-42.538090	38205.187500	1863.874756
599.659241	-48.498672	38512.855469	1655.790283
600.082153	-42.538090	38889.101563	1696.965454
600.505005	-43.034771	38818.695313	1578.225952
600.927795	-26.645573	39166.953125	1617.017578
601.350525	-36.081215	39576.328125	1551.545776
601.773254	-59.924973	38877.066406	1505.440430
602.195862	-34.591358	39047.375000	1374.254517
602.618408	-40.054611	38651.707031	1311.010864
603.040955	-49.989017	38538.664063	1330.476074
603.463440	-27.638941	38047.925781	1286.672363
603.885925	-70.359810	38023.054688	1196.550659
604.308350	27.950748	37464.804688	1128.277710
604.730652	-75.826271	37340.652344	1116.079468
605.152893	-47.505222	37044.113281	1140.473999
605.575195	-23.666653	36678.128906	1123.398560
605.997375	-70.359673	36731.292969	981.762695
606.419495	-43.531319	36469.933594	930.411499
606.841553	14.554529	35809.109375	1040.404297
607.263672	-48.995270	35498.609375	891.261658
607.685608	-48.001945	35319.640625	1003.759033
608.107605	-53.963089	35249.644531	859.436401
608.529480	-55.950363	35787.851563	913.286133
608.951294	-19.197746	35977.855469	984.207092
609.373108	-7.779380	35865.355469	945.086975
609.794800	-56.944092	35275.785156	861.885071
610.216553	-46.014942	34824.261719	847.192139
610.638123	-24.163040	34659.378906	859.436401
611.059753	-33.598145	34259.480469	925.518921
611.481262	-7.779380	33871.812500	788.388916
611.902832	-44.524837	34077.207031	856.987671
612.324219	-49.989017	34776.839844	798.193054
612.745605	-31.611631	35041.406250	815.346680
613.166931	-20.687346	34364.128906	810.446045
613.588196	-5.793874	33523.476563	839.844299
614.009460	-12.247284	32620.187500	805.544983
614.430664	-60.421940	32094.378906	778.583679
614.851807	-6.290379	31809.794922	758.968628
615.272827	-31.611631	32194.849609	861.885071
615.693909	-40.551270	33732.941406	795.742188
616.114929	11.081046	35916.292969	812.896423
616.535889	-61.415607	37860.554688	793.291138
616.956787	-22.176981	37554.398438	781.035156
617.377563	14.058330	35516.765625	844.742981
617.798340	1.155143	33284.644531	847.192139
618.219055	-3.808299	31355.197266	736.894958
618.639832	-21.680475	30134.416016	803.094604
619.060364	-13.240004	29182.683594	771.228577
619.481018	-2.815739	28425.253906	724.628845
619.901611	-75.826141	27839.464844	741.800903
620.322083	-64.396721	27158.095703	658.353027
620.742493	-25.652763	26565.279297	680.452271
621.162842	-23.666653	25834.326172	719.721680
621.583191	-51.479393	25762.089844	704.998291
622.003418	-45.021538	25337.289063	692.726440
622.423706	0.162515	25165.972656	695.181030
622.843872	-3.808299	24840.787109	577.260254
623.264038	-38.067879	24545.457031	697.635559
623.684143	-63.403000	24318.789063	646.072632
624.104126	-46.511787	23927.605469	621.504822
624.524170	-32.604946	23936.871094	631.333191
624.944031	-36.081348	24005.281250	687.816956
625.364014	12.569571	25060.208984	655.897095
625.783752	-20.190989	26042.687500	717.268250
626.203552	9.592213	26725.085938	687.816956
626.623230	-26.645844	26729.080078	665.720337
627.042969	-2.815739	25811.724609	655.897095
627.462585	22.989552	25051.798828	596.928223
627.882141	-26.149166	24654.193359	587.094788
628.301697	-36.081348	24476.072266	611.675354
628.721130	58.701427	24291.402344	520.682068
629.140625	-65.887474	24004.398438	454.201721
629.559998	-21.680342	23639.089844	606.759888
629.979309	-26.645844	23728.621094	663.264709
630.398560	-18.204792	23708.330078	584.636230
630.817810	-83.778351	23595.433594	518.221008
631.237000	-38.564655	23291.285156	626.419128
631.656067	-23.666653	22869.820313	439.419098
632.075195	-51.976021	21871.763672	510.837494
632.494202	-72.844444	21315.652344	510.837494
632.913208	-29.625185	21131.005859	513.298889
633.332092	-19.197746	20754.888672	481.294708
633.750977	-27.142389	21009.990234	532.985962
634.169739	-36.081348	21135.390625	483.756866
634.588562	-47.008503	21091.541016	436.954926
635.007263	-14.233144	21393.302734	532.985962
635.425964	-30.121893	21428.843750	441.883118
635.844543	-40.054478	21763.740234	446.810974
636.263123	-58.434647	21770.765625	491.143707
636.681641	-63.899857	21637.302734	461.591949
637.100037	-28.135494	21842.343750	464.055115
637.518494	-29.128754	22029.896484	513.298889
637.936829	-16.715393	22612.392578	577.260254
638.355164	-2.319128	22604.035156	471.443939
638.773438	-6.290244	22753.187500	478.832153
639.191650	-82.287415	22397.765625	432.026367
639.609863	-44.524971	22160.396484	493.605804
640.027893	-38.067879	21593.408203	436.954926
640.445984	-68.371910	21440.687500	441.883118
640.863953	-53.963223	21037.171875	523.143005
641.281921	-44.524837	20527.935547	464.055115
641.699829	-82.784569	19929.382813	540.366943
642.117676	0.162515	19446.755859	537.906616
642.535461	-50.485626	18905.751953	446.810974
642.953247	-22.176981	18691.935547	473.906769
643.370972	2.147754	18649.960938	535.446228
643.788635	-44.524837	19163.324219	471.443939
644.206177	-12.247149	20057.195313	488.681519
644.623718	36.880016	19869.859375	459.128632
645.041260	-64.893723	19275.289063	478.832153
645.458618	-50.485760	19038.687500	441.883118
645.876099	-38.564522	19291.910156	424.633057
646.293396	-7.779515	19905.310547	456.665222
646.710693	-59.925110	20157.445313	535.446228
647.127991	-71.850441	19545.185547	464.055115
647.545166	-48.498672	19404.326172	483.756866
647.962341	-46.015079	18775.447266	367.921326
648.379333	-56.944092	18317.685547	515.760071
648.796448	-54.956917	18203.576172	407.378326
649.213379	-39.061169	18177.779297	441.883118
649.630310	-45.518238	17950.000000	471.443939
650.047180	-21.680342	17402.544922	456.665222
650.463989	-63.899994	16900.375000	427.097687
650.880859	-48.995403	15992.291016	532.985962
651.297546	-61.912453	15286.214844	466.517975
651.714233	-33.101543	14782.367188	528.064697
652.130859	-28.135494	14720.376953	493.605804
652.547485	-5.297507	14424.306641	528.064697
652.963928	33.407703	14384.691406	466.517975
653.380432	-39.061169	14374.124023	464.055115
653.796814	-47.505222	14460.397461	444.347107
654.213196	-26.645844	14984.524414	547.747375
654.629578	-25.156229	15220.804688	616.590393
655.045837	-10.757901	15609.142578	560.045959
655.462036	-31.611631	15962.491211	601.844116
655.878174	-15.722346	16367.686523	609.217712
656.294312	-2.319128	16388.705078	508.376099
656.710327	-44.524971	15922.172852	675.541931
657.126404	-35.087975	15830.128906	555.126709
657.542358	14.554394	16203.017578	717.268250
657.958252	-30.618603	16346.232422	655.897095
658.374084	-76.820076	16344.041992	673.086609
658.789917	-7.779380	15510.010742	594.470032
659.205688	-65.390457	14796.875977	609.217712
659.621338	-22.673353	14183.877930	560.045959
660.037048	134.022995	14134.532227	589.553345
660.452637	7.607089	13870.460938	481.294708
660.868164	82.497299	13863.842773	518.221008
661.283691	-33.101410	13358.681641	496.067780
661.699158	-39.557957	13056.540039	525.603882
662.114502	8.599591	12795.628906	505.914551
662.529846	18.524244	12761.940430	547.747375
662.945129	-3.311949	12816.462891	446.810974
663.360413	-45.021538	12580.978516	488.681519
663.775635	-34.094749	12610.706055	399.981873
664.190674	-38.067879	12577.427734	520.682068
664.605835	64.651215	12584.083984	434.490723
665.020813	-33.101543	12426.939453	367.921326
665.435791	-15.722481	12328.765625	432.026367
665.850769	-38.067879	12313.215820	409.843597
666.265625	-31.115047	12931.663086	353.118744
666.680420	-14.232874	13496.121094	353.118744
667.095215	0.162380	13662.175781	434.490723
667.509949	-61.912453	13410.396484	328.439941
667.924622	-66.384354	13038.387695	385.186737
668.339233	-85.766647	12705.185547	427.097687
668.753784	-29.128754	12632.001953	471.443939
669.168335	-38.564522	12285.216797	414.773865
669.582825	10.088449	12314.547852	451.738159
669.997192	27.950748	12431.824219	503.452942
670.411560	-44.524837	12399.846680	434.490723
670.825867	-43.034771	12454.914063	466.517975
671.240173	-20.190989	12548.137695	646.072632
671.654358	-12.247284	12624.016602	520.682068
672.068481	20.508732	12618.691406	562.505432
672.482605	-69.862762	12386.965820	473.906769
672.896667	-60.918636	12275.438477	454.201721
673.310669	-57.440895	12089.562500	493.605804
673.724609	31.423512	11984.531250	579.719055
674.138489	-0.830265	11847.811523	476.369507
674.552307	-66.881233	11764.481445	444.347107
674.966064	-46.014942	11762.250977	468.981018
675.379822	33.903740	11695.378906	547.747375
675.793579	-58.931332	11393.676758	446.810974
676.207153	-5.793874	11308.333008	340.780609
676.620789	26.462473	11297.606445	454.201721
677.034241	11.577000	11358.828125	370.388153
677.447754	6.118168	10898.423828	412.308807
677.861206	3.140484	10711.465820	478.832153
678.274597	11.577000	10526.081055	459.128632
678.687866	-5.297507	10460.041992	348.183777
679.101135	-23.170002	10187.498047	493.605804
679.514404	-15.722481	9894.610352	387.652863
679.927551	-51.976021	9780.904297	316.097015
680.340698	-42.538090	9478.149414	338.312653
680.753723	-65.390457	9401.682617	353.118744
681.166748	-35.087975	9273.087891	355.586121
681.579712	-52.969543	9198.777344	286.463776
681.992615	-1.822791	9019.176758	382.720490
682.405457	61.676331	9110.820313	429.562195
682.818298	-1.326593	9366.830078	449.274475
683.231018	5.125758	9728.983398	432.026367
683.643738	-1.326593	10157.784180	362.987701
684.056335	-36.081348	10192.899414	291.403687
684.468994	-25.652628	9462.318359	269.171295
684.881531	-26.645844	9418.427734	325.971619
685.293945	-23.666384	9521.568359	296.343079
685.706482	-96.703400	9679.754883	316.097015
686.118774	8.103342	9402.135742	424.633057
686.531128	16.539419	8693.400391	424.633057
686.943481	-43.531319	8202.587891	387.652863
687.355713	25.470404	7808.913574	412.308807
687.767883	-31.115047	7474.211426	301.282074
688.179932	-5.793874	7347.443359	362.987701
688.592041	-52.472778	7246.304688	358.053406
689.004089	-39.061306	7132.201172	266.700531
689.416016	-43.531319	7251.364746	288.933807
689.827881	12.569571	7139.565430	362.987701
690.239868	-32.108219	6941.032715	365.454407
690.651611	-18.701403	6866.791504	466.517975
691.063354	-14.729586	6716.792969	387.652863
691.475098	-8.772293	6576.786621	409.843597
691.886719	-8.772159	6501.867676	409.843597
692.298340	-27.142389	6312.521484	454.201721
692.709900	-0.333940	6541.182617	481.294708
693.121460	-26.645844	6460.226563	367.921326
693.532837	-3.311949	6457.450684	436.954926
693.944214	-46.511654	6281.012695	402.447449
694.355652	-42.538090	6198.497070	358.053406
694.766846	-72.844444	6125.669922	365.454407
695.178101	-58.434513	6293.988281	330.908295
695.589294	48.287571	6559.679688	446.810974
696.000366	-49.989017	6762.041504	358.053406
696.411438	-4.801145	6643.344238	436.954926
696.822510	-18.701267	6217.507813	333.376556
697.233459	-74.832359	6102.467285	274.112579
697.644409	-30.618467	5823.695313	335.844574
698.055298	-70.856461	5744.594238	279.053345
698.466064	-42.538090	5690.123535	276.582947
698.876831	11.577000	5728.302246	362.987701
699.287537	40.352123	5872.062012	414.773865
699.698181	-14.729586	5981.279785	281.523621
700.108826	-53.963223	6058.370117	261.758789
700.519348	-36.081348	5839.045410	286.463776
700.929810	-14.232874	5634.696777	301.282074
701.340271	30.927454	5586.235352	429.562195
701.750732	57.213787	5534.024902	370.388153
702.161011	-15.722346	5405.731934	283.993683
702.571350	-10.261493	5283.841797	325.971619
702.981567	47.791653	5319.347168	483.756866
703.391724	18.027807	5110.830566	355.586121
703.801880	-28.135630	5033.125488	286.463776
704.211914	-44.028008	4911.316406	323.503082
704.621948	0.658831	4903.815918	360.520599
705.031921	-24.163040	4804.860840	340.780609
705.441895	-42.537952	4722.255859	286.463776
705.851746	-43.034771	4695.490234	409.843597
706.261536	2.147754	4690.324219	321.034424
706.671265	-56.944092	4573.319824	402.447449
707.081055	-40.551270	4469.842285	283.993683
707.490662	-10.757901	4359.674316	362.987701
707.900330	-38.564522	4386.991211	296.343079
708.309814	-57.937565	4311.618164	323.503082
708.719299	39.360016	4382.281738	419.703522
709.128784	51.759148	4272.969238	358.053406
709.538147	-59.925110	4206.481445	417.238617
709.947510	9.095972	4215.442383	399.981873
710.356750	-43.531319	4088.966553	404.912964
710.766052	-54.460003	4095.577148	360.520599
711.175171	-32.604813	4022.365723	335.844574
711.584290	-15.226031	4074.799561	343.248352
711.993347	-64.396721	4080.466309	350.651367
712.402405	27.454929	4253.640137	387.652863
712.811401	7.110695	4182.894043	355.586121
713.220276	-7.283133	4004.882080	325.971619
713.629150	-28.632055	3977.469727	316.097015
714.037964	-15.722346	4028.980713	382.720490
714.446777	-29.625320	4266.369629	286.463776
714.855408	-24.659565	4433.602539	318.565704
715.264099	-26.149166	4607.165039	323.503082
715.672668	-14.233008	4444.898926	343.248352
716.081177	-7.779380	4152.695313	377.788025
716.489746	-33.598145	3968.016357	249.402649
716.898132	-5.793874	3933.500977	318.565704
717.306519	-30.618467	3801.958496	404.912964
717.714844	-49.492138	3680.206543	283.993683
718.123108	-22.673353	3611.925537	365.454407
718.531372	-44.524700	3527.936035	271.641998
718.939514	15.050724	3509.895508	301.282074
719.347595	-49.988880	3492.801514	244.459412
719.755676	4.133197	3602.439209	261.758789
720.163696	-28.632191	3740.863525	276.582947
720.571716	-43.034771	3803.378418	261.758789
720.979614	-44.524700	3710.539551	330.908295
721.387451	-24.659565	3610.977051	229.627579
721.795227	13.066053	3672.147949	296.343079
722.202942	-11.750864	3521.764648	239.515915
722.610718	-55.950363	3451.003418	241.987640
723.018311	2.644189	3466.204834	293.873383
723.425903	-35.584728	3471.904297	345.716125
723.833374	-59.428150	3378.767334	296.343079
724.240906	-60.421940	3265.556641	298.812683
724.648376	-52.969543	3246.041016	241.987640
725.055725	-5.793738	3281.737061	321.034424
725.463013	-3.808299	3276.026855	343.248352
725.870300	-25.156229	3180.802734	360.520599
726.277466	32.415752	3185.566162	362.987701
726.684631	-5.297507	3172.228271	286.463776
727.091797	-35.584728	3124.578125	286.463776
727.498779	-1.326593	3027.299072	261.758789
727.905823	-11.254448	2967.166504	254.345367
728.312805	65.642906	3009.644531	395.050720
728.719666	21.005013	3033.978516	355.586121
729.126526	14.058330	3005.827881	380.254425
729.533264	-42.537952	2956.185547	355.586121
729.940063	-3.808299	2906.996582	288.933807
730.346680	6.118168	2823.843018	279.053345
730.753357	22.493423	2853.480713	355.586121
731.159851	-7.282997	2787.978027	377.788025
731.566406	-9.765224	2794.673828	335.844574
731.972900	-17.211857	2854.436035	271.641998
732.379272	-40.551136	2893.142822	283.993683
732.785645	-1.822791	2918.937988	291.403687
733.191895	-40.551270	2877.375244	286.463776
733.598206	-47.505089	2902.697021	432.026367
734.004333	-29.625185	2803.760010	328.439941
734.410522	36.880016	2861.606201	333.376556
734.816528	-27.638941	2760.233154	306.220825
735.222656	-60.918770	2719.558350	279.053345
735.628662	-20.190853	2692.272705	202.426544
736.034546	-23.169867	2699.932617	296.343079
736.440430	-19.197746	2644.861572	274.112579
736.846252	-65.887474	2738.701904	296.343079
737.252014	-33.598145	2879.765137	343.248352
737.657715	-42.537952	2925.146973	276.582947
738.063354	-9.268554	3051.627930	370.388153
738.468933	-24.659565	2945.681396	264.229767
738.874512	-19.694365	2883.109375	340.780609
739.280029	-39.557819	2812.845703	264.229767
739.685486	-45.021538	2780.325439	293.873383
740.090881	6.614434	2836.272705	427.097687
740.496216	-21.680342	2858.260498	414.773865
740.901550	6.118168	3099.790283	343.248352
741.306702	-11.750864	3219.379883	362.987701
741.711914	6.118438	3085.010498	333.376556
742.117004	11.080776	3017.756348	355.586121
742.522095	-26.645844	2871.163574	316.097015
742.927124	-33.598145	2822.886719	283.993683
743.332031	8.599726	2787.021729	358.053406
743.737000	-24.659565	2669.288086	224.682755
744.141785	-46.014942	2705.677246	279.053345
744.546631	-20.190989	2575.856689	358.053406
744.951355	-11.750864	2551.405518	298.812683
745.356079	-0.830265	2581.609375	296.343079
745.760620	-38.564522	2511.598389	279.053345
746.165283	-16.715393	2609.407471	372.854858
746.569824	-42.538090	2531.264160	296.343079
746.974243	-48.001945	2454.974365	303.751495
747.378723	-9.765089	2426.648926	266.700531
747.783020	-28.632191	2428.569092	375.321503
748.187378	-23.170002	2421.847168	237.043930
748.591614	-85.269600	2460.254395	293.873383
748.995850	-24.163040	2472.253174	362.987701
749.399963	-70.856598	2384.864990	259.287689
749.804077	-26.149302	2381.982422	271.641998
750.208130	-41.048069	2413.203613	269.171295
750.612122	-47.008503	2304.604004	286.463776
751.016052	-27.638941	2360.362061	264.229767
751.419922	4.629479	2321.912109	358.053406
751.823792	-62.906143	2331.045410	214.792191
752.227478	-15.722481	2267.572998	261.758789
752.631226	49.775436	2296.910156	271.641998
753.034851	-2.319398	2267.091553	219.737671
753.438477	-18.204927	2366.127930	264.229767
753.842102	-1.326593	2397.354004	328.439941
754.245544	2.643919	2528.866211	333.376556
754.648987	-49.989017	2723.387695	249.402649
755.052368	-35.087975	2779.846680	239.515915
755.455750	-47.505222	2894.576172	259.287689
755.859009	-48.001945	2829.580078	229.627579
756.262268	-31.115047	2814.758301	313.628052
756.665405	24.974026	2730.566162	387.652863
757.068542	-31.115047	2479.931152	360.520599
757.471680	13.562261	2332.006836	283.993683
757.874634	-36.081348	2159.757568	259.287689
758.277588	-60.918636	2097.124512	330.908295
758.680420	-43.531319	2132.782715	195.006012
759.083374	-26.149166	2153.977539	251.873993
759.486084	-54.956783	2135.673096	328.439941
759.888916	3.140484	2175.167969	348.183777
760.291504	-34.094749	2123.146973	276.582947
760.694214	-24.659565	2005.501709	217.264908
761.096802	-95.211853	1988.130249	266.700531
761.499268	-16.715393	2032.033936	214.792191
761.901733	-53.466450	2011.291016	274.112579
762.304199	-13.736571	1953.376831	219.737671
762.706543	-50.982510	1880.927856	293.873383
763.108826	-2.319128	1922.473267	190.058548
763.511108	1.651451	1910.881226	259.287689
763.913208	-12.247149	1975.582153	301.282074
764.315369	-30.121758	2091.822754	276.582947
764.717529	3.140484	2106.763184	288.933807
765.119568	37.376160	2206.461670	362.987701
765.521545	7.110830	2253.141357	244.459412
765.923462	-18.701403	2601.739746	239.515915
766.325317	-39.557957	3164.605469	279.053345
766.727112	-81.790398	3499.923584	281.523621
767.128845	4.629479	3480.454102	274.112579
767.530518	-26.645708	3096.930176	271.641998
767.932251	4.629479	2648.214600	355.586121
768.333862	-39.557957	2374.295898	224.682755
768.735413	-31.611496	2180.464600	266.700531
769.136841	17.531773	2140.009033	269.171295
769.538269	11.080776	2280.078369	269.171295
769.939636	3.636775	2390.149170	311.159027
770.341003	-65.887474	2428.569580	254.345367
770.742249	-6.786619	2346.906494	256.816650
771.143433	-9.765224	2184.798340	195.006012
771.544617	-39.557957	2054.218262	296.343079
771.945740	-3.311949	2074.950928	239.515915
772.346802	-25.156229	1942.272217	274.112579
772.747803	-34.591496	1831.142822	256.816650
773.148682	-16.715528	1741.163452	340.780609
773.549622	-19.197746	1695.651978	241.987640
773.950439	-26.149166	1579.820679	291.403687
774.351196	-54.956783	1511.890869	283.993683
774.751892	20.509003	1554.111328	249.402649
775.152588	13.562261	1565.754517	227.155212
775.553162	14.554529	1534.217163	261.758789
775.953735	49.279392	1568.179688	274.112579
776.354309	-23.170002	1482.760132	330.908295
776.754639	-36.081348	1440.015381	195.006012
777.155090	-47.505222	1372.935547	237.043930
777.555420	-49.989017	1325.263550	207.373016
777.955750	-52.969681	1362.236328	157.889740
778.355896	-40.054611	1369.045288	165.314774
778.756104	-17.708323	1439.529419	281.523621
779.156189	-37.074741	1429.325562	202.426544
779.556274	-6.290379	1439.043701	192.532257
779.956299	-10.757901	1399.677368	254.345367
780.356201	-19.694500	1339.860352	160.364899
780.756165	-33.101543	1427.867432	286.463776
781.156006	-19.197882	1488.587280	140.561096
781.555786	-52.472778	1538.099365	190.058548
781.955505	-58.434513	1541.981567	254.345367
782.355225	-4.304652	1492.957275	212.319229
782.754761	21.997292	1435.642212	261.758789
783.154358	-41.544601	1318.937866	165.314774
783.553894	-69.365852	1330.616211	170.264389
783.953369	-58.434513	1322.343994	212.319229
784.352783	-78.808395	1245.906128	237.043930
784.752075	39.360287	1299.956543	348.183777
785.151367	-2.319128	1239.573242	138.085266
785.550598	-21.680475	1221.059448	147.988251
785.949768	-25.652628	1229.829224	269.171295
786.348877	-52.969543	1170.852539	147.988251
786.747986	-35.584728	1169.877075	239.515915
787.147034	-19.197882	1189.379395	244.459412
787.545959	-55.950363	1163.537842	192.532257
787.944885	-8.275902	1204.489990	308.690063
788.343750	-3.311949	1157.685669	224.682755
788.742493	-16.715528	1126.954468	197.479660
789.141235	-36.577839	1109.387939	261.758789
789.539917	-31.115047	1058.128296	195.006012
789.938538	-21.183840	1116.707886	222.210342
790.337158	-26.149166	1090.841064	251.873993
790.735718	45.807808	1170.364990	239.515915
791.134094	-43.531319	1093.770020	249.402649
791.532532	25.966509	1257.595947	259.287689
791.930847	0.658831	1171.827637	343.248352
792.329224	7.607089	1167.439087	167.789627
792.727417	-21.183840	1142.565796	209.846176
793.125610	-79.305389	1110.364380	180.162262
793.523682	-51.479259	1049.825562	197.479660
793.921753	-4.304652	1092.305542	276.582947
794.319824	-42.041275	1054.709717	162.839951
794.717773	-39.557819	1105.971924	204.899887
795.115723	-5.793874	1065.941650	150.463791
795.513550	-4.304652	1068.871338	281.523621
795.911377	-18.204792	1063.500000	222.210342
796.309082	39.360287	1134.272461	404.912964
796.706787	-28.135494	1065.941650	130.656784
797.104370	9.095972	1125.978760	157.889740
797.501953	3.140214	1120.123535	261.758789
797.899536	-62.906143	1018.560181	222.210342
798.296936	-52.969681	982.881165	197.479660
798.694397	-21.183975	1037.125854	217.264908
799.091736	-59.428013	980.436768	249.402649
799.489014	-20.190853	977.014404	204.899887
799.886230	38.864296	1031.263428	246.931091
800.283447	-35.584457	997.545837	232.099838
800.680542	16.539419	1053.244385	306.220825
801.077637	42.832115	1034.683228	244.459412
801.474670	-14.729450	960.389465	155.414612
801.871643	-8.276037	1016.117188	175.213455
802.268555	1.651586	1014.650696	150.463791
802.665405	-87.755005	1021.980469	177.687912
803.062256	30.927183	1079.613037	306.220825
803.458923	-27.142525	1052.756226	254.345367
803.855652	-44.524837	992.658203	202.426544
804.252258	82.992928	1129.881958	343.248352
804.648804	-44.028278	975.548096	222.210342
805.045410	-48.001945	1014.162109	219.737671
805.441833	36.384003	1035.659912	283.993683
805.838257	-23.666519	961.367493	180.162262
806.234619	50.271469	1064.964966	202.426544
806.630859	-34.094749	972.614136	234.571869
807.027100	-48.498672	914.405762	227.155212
807.423279	-40.551270	906.086304	241.987640
807.819458	-12.743710	975.547546	118.274200
808.215515	-84.772697	917.341919	187.584595
808.611572	34.895802	1000.967468	217.264908
809.007507	-30.121893	942.293152	185.110535
809.403381	-40.054478	967.724365	227.155212
809.799194	-22.176981	955.988098	219.737671
810.195068	-1.326593	975.058594	192.532257
810.590759	-39.061169	1005.854614	234.571869
810.986450	-40.551270	963.812561	214.792191
811.382080	22.493423	1051.290894	249.402649
811.777649	-48.498810	1005.854614	192.532257
812.173157	65.642906	1033.217285	286.463776
812.568665	-62.906010	963.323486	222.210342
812.964050	-27.638941	1041.033569	266.700531
813.359375	-1.823061	1061.546753	155.414612
813.754639	-47.505222	1031.263184	138.085266
814.149841	-14.729586	1121.587402	192.532257
814.545105	-18.701267	1184.504272	209.846176
814.940186	-19.694500	1210.337891	219.737671
815.335266	-0.333670	1340.347046	239.515915
815.730347	85.471153	1513.347290	345.716125
816.125244	-38.564522	1534.217651	241.987640
816.520203	21.997292	1878.511963	301.282074
816.914978	-28.135494	2290.178467	217.264908
817.309753	-39.557957	3153.170410	321.034424
817.704468	11.577270	4570.968750	313.628052
818.099182	73.575127	6519.907715	500.991211
818.493774	-3.808299	8385.541016	528.064697
818.888367	56.717945	10210.454102	795.742188
819.282898	42.336018	11382.061523	871.678528
819.677307	73.079285	12081.107422	984.207092
820.071716	37.376160	12250.104492	847.192139
820.466003	15.050724	12021.476563	864.333618
820.860291	5.621898	11298.947266	842.293640
821.254517	44.320114	10187.947266	871.678528
821.648743	-18.701267	9000.570313	881.470947
822.042786	-11.254313	7823.107422	844.742981
822.436890	-19.694365	6798.505371	783.486572
822.830872	8.103342	5799.505371	798.193054
823.224792	-33.101410	4923.971680	557.586365
823.618774	3.636775	4304.548828	518.221008
824.012512	-45.518238	3817.581543	330.908295
824.406311	-42.041275	3436.274902	266.700531
824.799988	-26.149166	3045.427002	251.873993
825.193665	-13.736571	2807.107910	246.931091
825.587280	0.162515	2570.583496	274.112579
825.980835	9.095837	2409.361084	224.682755
826.374329	-33.598145	2274.787842	271.641998
826.767761	10.584682	2106.763184	274.112579
827.161194	7.606954	1950.963013	239.515915
827.554443	-18.204927	1871.263306	217.264908
827.947754	-42.041142	1716.474243	113.320480
828.340942	-39.557957	1654.476074	202.426544
828.734131	-13.240138	1594.854492	190.058548
829.127136	-71.850578	1456.533203	190.058548
829.520264	-44.028145	1413.287598	162.839951
829.913208	-13.736571	1391.898926	152.939255
830.306152	-2.319128	1346.671509	170.264389
830.699097	-36.081348	1285.351929	249.402649
831.091797	-12.743844	1267.336060	229.627579
831.484619	-44.524837	1205.464355	167.789627
831.877319	84.479935	1309.691040	195.006012
832.270020	19.020136	1330.616455	256.816650
832.662537	-7.282862	1397.246338	212.319229
833.055054	-71.850578	1317.964600	180.162262
833.447510	56.222099	1359.804810	283.993683
833.839966	-9.268689	1185.479248	301.282074
834.232361	-67.378258	1134.760376	147.988251
834.624634	-37.074604	1063.988647	207.373016
835.016907	-8.772293	1093.281738	217.264908
835.409058	-25.156094	953.542725	222.210342
835.801208	-20.190853	958.922058	195.006012
836.193298	-44.028145	906.576050	110.843407
836.585327	10.584682	946.206360	209.846176
836.977295	-48.995403	841.945068	197.479660
837.369202	-14.729586	872.799072	197.479660
837.761047	-59.428150	791.471619	140.561096
838.152832	-37.571106	782.156616	237.043930
838.544617	11.577270	829.207336	291.403687
838.936218	1.155143	810.587158	192.532257
839.327942	6.118168	800.294495	204.899887
839.719421	10.088449	772.350464	138.085266
840.111023	-0.333940	728.204956	177.687912
840.502380	-46.511654	720.354126	123.227509
840.893860	-41.047935	719.372681	192.532257
841.285217	5.125758	771.370056	204.899887
841.676453	40.352123	755.676697	182.636368
842.067749	-7.779515	694.340637	177.687912
842.458862	-50.485626	717.900146	147.988251
842.849976	-58.931332	687.958313	170.264389
843.241028	-12.247149	640.318665	286.463776
843.632019	12.073220	688.940491	192.532257
844.022949	-22.176981	694.831421	195.006012
844.413879	-64.396721	600.019348	120.750977
844.804749	-56.944092	670.281677	165.314774
845.195496	-19.694365	634.422729	177.687912
845.586182	-11.750864	645.722717	167.789627
845.976807	-51.479393	636.388000	105.888954
846.367432	-35.584728	630.000488	83.589241
846.757996	9.592213	675.683350	113.320480
847.148499	11.080776	628.526489	227.155212
847.538879	28.446831	616.240356	212.319229
847.929260	-33.598145	578.877197	204.899887
848.319641	71.096275	665.370605	269.171295
848.709839	6.614704	614.766052	165.314774
849.100098	-58.931332	573.467712	192.532257
849.490234	-56.944092	597.069519	177.687912
849.880310	-0.830265	599.036194	120.750977
850.270325	-6.290244	613.291504	177.687912
850.660339	15.546916	586.744873	177.687912
851.050171	-2.319128	613.291504	58.802025
851.440125	-8.772293	565.598450	185.110535
851.829895	-36.081348	559.695618	187.584595
852.219604	-31.115047	599.527649	177.687912
852.609314	-24.163040	565.106506	214.792191
852.998901	-15.226031	559.204102	130.656784
853.388550	-9.765224	517.378357	143.036957
853.778015	-6.290244	581.827576	192.532257
854.167480	-23.666653	573.467712	157.889740
854.556885	-50.485760	577.401855	207.373016
854.946228	11.577000	568.549194	150.463791
855.335571	-27.142525	582.811035	264.229767
855.724731	-67.378120	541.492981	125.704079
856.113953	-38.564522	462.226288	125.704079
856.503052	-54.459866	522.300415	167.789627
856.892151	-28.632055	483.898987	199.953094
857.281067	-22.673353	506.056335	86.067444
857.670105	-32.108219	480.944214	172.739029
858.058960	12.073490	513.932739	212.319229
858.447754	-22.176981	562.155396	187.584595
858.836609	77.044968	574.450989	261.758789
859.225281	-8.772293	518.363037	283.993683
859.613892	1.155143	507.041168	219.737671
860.002502	-56.944092	491.285522	83.589241
860.391052	-51.479259	421.324463	108.366234
860.779541	-22.673489	441.532288	138.085266
861.167969	14.058330	522.792725	177.687912
861.556335	-20.190853	456.314301	222.210342
861.944702	-43.034634	464.689484	175.213455
862.332947	-45.021538	472.078491	145.512711
862.721069	-11.254583	490.300690	165.314774
863.109253	-42.041275	433.154266	177.687912
863.497314	13.065784	498.671478	108.366234
863.885376	3.140484	476.511322	170.264389
864.273315	-6.786619	451.880066	185.110535
864.661255	-56.944092	438.575439	204.899887
865.049072	-41.544601	448.431091	147.988251
865.436890	-51.479393	481.436279	172.739029
865.824707	17.035599	501.625458	197.479660
866.212280	1.155143	494.732605	120.750977
866.599915	-18.204792	444.981903	170.264389
866.987488	18.523975	488.330780	135.609207
867.375061	-19.694231	492.270325	185.110535
867.762451	18.524244	485.868744	190.058548
868.149841	-19.694365	402.589478	130.656784
868.537170	4.629479	482.913818	254.345367
868.924438	-11.254448	438.575439	187.584595
869.311707	-22.176981	428.225403	175.213455
869.698853	-35.087975	401.603455	140.561096
870.085938	-13.736571	410.478760	190.058548
870.472961	-27.142389	373.983673	152.939255
870.859985	-3.311949	428.225403	157.889740
871.246887	41.344345	457.299927	222.210342
871.633789	-50.982510	438.082764	135.609207
872.020569	-21.183840	391.247314	125.704079
872.407349	89.931587	471.093079	254.345367
872.794067	21.005013	414.422760	175.213455
873.180725	28.943045	414.422760	138.085266
873.567322	-23.170002	362.636261	197.479660
873.953796	-20.687346	349.806396	138.085266
874.340332	17.035599	392.233643	147.988251
874.726624	4.132927	371.023560	162.839951
875.113037	-71.850441	332.531219	165.314774
875.499329	-61.912453	314.758087	147.988251
875.885559	-19.197746	359.675598	123.227509
876.271729	-46.015079	309.326080	36.484768
876.657898	-24.659565	332.531494	138.085266
877.044006	-41.544601	317.720428	140.561096
877.429932	10.584682	332.531494	229.627579
877.815918	-25.652763	362.636261	110.843407
878.201782	2.644189	352.274048	177.687912
878.587585	46.303738	415.408844	222.210342
878.973389	3.636775	408.506531	162.839951
879.359070	31.423512	401.603180	190.058548
879.744751	-20.687346	322.164063	88.545403
880.130310	-46.014942	293.521698	172.739029
880.515930	-39.061169	347.832550	125.704079
880.901367	-69.862762	319.695618	120.750977
881.286804	-28.135630	370.530487	182.636368
881.672180	-1.822791	344.871216	83.589241
882.057434	-63.403137	284.630096	192.532257
882.442749	-0.829995	282.159943	187.584595
882.827942	-4.801145	309.326080	182.636368
883.213013	-29.625185	295.497498	217.264908
883.598145	12.569571	311.795166	150.463791
883.983154	-22.673353	318.708038	108.366234
884.368042	-24.163040	293.027649	68.718170
884.753052	-36.081215	260.912750	133.133041
885.137817	-33.598145	299.448944	108.366234
885.522644	7.110695	324.632782	157.889740
885.907349	-42.041142	251.522217	145.512711
886.292053	-48.001945	263.877930	78.632675
886.676636	7.607089	292.039764	95.979080
887.061157	-24.163040	231.253265	86.067444
887.445740	-35.087837	288.088013	26.563257
887.830078	2.147754	279.689636	195.006012
888.214539	54.734398	332.037872	157.889740
888.598816	27.950884	300.436584	78.632675
888.983093	-28.135630	322.164063	108.366234
889.367249	-45.021538	253.004852	73.675560
889.751465	-15.722346	255.476318	36.484768
890.135498	-29.625185	268.325348	140.561096
890.519531	-6.786619	319.695343	170.264389
890.903503	1.651451	292.039764	110.843407
891.287415	23.485813	324.139099	165.314774
891.671326	15.050724	259.924500	38.964787
892.055054	-24.659565	271.290070	58.802025
892.438843	-51.479393	275.243011	78.632675
892.822510	-54.956783	250.533417	68.718170
893.206116	-27.142389	252.510605	41.444839
893.589661	-28.632055	240.647003	110.843407
893.973206	-48.995270	230.264542	110.843407
894.356628	-14.729586	258.441772	73.675560
894.739990	-53.466450	262.395264	98.456635
895.123352	22.989552	265.854553	73.675560
895.506592	-21.183975	265.360535	58.802025
895.889832	-14.233144	219.880096	86.067444
896.272949	-9.765089	210.977798	68.718170
896.656067	-4.304787	283.642120	120.750977
897.039063	39.856274	289.570038	113.320480
897.422058	3.636775	239.658279	71.196854
897.804993	-7.282997	242.624481	180.162262
898.187866	-1.822791	259.924500	113.320480
898.570618	6.614434	269.313721	46.404491
898.953369	-20.190718	269.313721	103.411705
899.336121	-10.261493	258.441498	170.264389
899.718689	-3.808299	275.737091	108.366234
900.101257	-10.758036	199.601013	34.004513
900.483704	-25.156094	224.825424	98.456635
900.866211	-20.687346	244.601913	81.110939
901.248596	-20.190853	187.727081	76.154167
901.630920	-20.190853	266.348694	41.444839
902.013184	-23.666384	185.747955	108.366234
902.395386	-29.128754	266.348694	78.632675
902.777588	-25.652763	174.860962	63.760235
903.159668	-8.275902	267.831238	43.924786
903.541687	-40.551270	222.847107	53.843399
903.923645	25.966509	302.906036	150.463791
904.305603	-40.054478	232.736664	187.584595
904.687500	0.162380	240.152634	36.484768
905.069275	-45.021538	178.325272	98.456635
905.451050	-6.786619	239.163803	105.888954
905.832642	-48.995403	245.096085	95.979080
906.214294	22.493559	253.993484	71.196854
906.595825	-5.297507	263.383759	135.609207
906.977417	-38.067879	240.152634	165.314774
907.358826	14.058330	220.869247	81.110939
907.740234	0.658831	221.858261	24.082586
908.121582	14.554529	305.375397	76.154167
908.502869	-2.319398	250.039291	138.085266
908.884033	27.454929	231.747955	152.939255
909.265198	-37.074604	190.201172	56.322697
909.646301	31.423512	234.714386	81.110939
910.027344	-20.190853	234.219864	100.934219
910.408325	47.791653	296.485352	48.884232
910.789246	-35.087837	238.669434	83.589241
911.170105	-17.211857	259.430298	9.196651
911.550903	-31.611631	267.337097	93.501289
911.931641	-32.604813	261.901245	-25.551889
912.312317	-31.115047	207.515610	98.456635
912.692932	-13.736571	250.533691	128.180542
913.073547	9.095972	278.207672	68.718170
913.453979	-57.937565	265.854553	36.484768
913.834473	-9.268554	249.545013	36.484768
914.214783	-40.551270	262.889313	36.484768
914.595154	50.271336	303.399902	133.133041
914.975464	-8.772293	284.136108	150.463791
915.355652	14.554529	283.148102	-20.586615
915.735840	0.162515	260.418549	138.085266
916.115845	13.562261	300.930725	133.133041
916.495972	-40.054611	251.027695	71.196854
916.875854	-38.067879	282.654083	130.656784
917.255859	-17.708323	328.088470	125.704079
917.635620	-26.645844	265.854553	66.239258
918.015503	3.140214	364.609924	105.888954
918.395203	34.895802	393.220215	204.899887
918.774902	-58.931332	306.857025	120.750977
919.154480	-50.982510	277.219421	83.589241
919.534058	122.631859	392.726898	155.414612
919.913574	-58.434513	280.183685	81.110939
920.292969	-22.176981	277.219421	26.563257
920.672363	-1.822791	267.336945	71.196854
921.051636	-35.088108	249.545013	227.155212
921.430969	4.132927	229.769836	46.404491
921.810181	-19.694365	268.819489	135.609207
922.189331	-58.434376	202.568878	58.802025
922.568420	-65.887474	199.600876	63.760235
922.947388	24.974297	286.112213	115.797325
923.326416	-25.652763	209.988754	88.545403
923.705261	-15.722346	210.483215	48.884232
924.084106	70.104813	322.657898	202.426544
924.462891	-2.319128	263.878052	81.110939
924.841675	-24.163040	286.112213	71.196854
925.220337	-47.505222	235.703186	58.802025
925.598938	-15.225896	261.901245	100.934219
925.977478	70.600548	373.983673	162.839951
926.355957	-48.498672	259.430023	16.640085
926.734436	-65.887474	249.050461	4.233749
927.112732	37.872166	314.757813	147.988251
927.491089	-87.755005	201.085022	11.677810
927.869324	-49.492138	205.536987	29.043690
928.247559	-3.311949	175.355850	150.463791
928.625671	-7.282997	145.160202	36.484768
929.003723	-8.275767	230.264542	135.609207
929.381775	-19.694365	170.901825	26.563257
929.759705	-22.176981	135.751694	-0.729434
930.137634	-59.428013	134.266098	53.843399
930.515381	-33.598011	190.695923	120.750977
930.893250	43.824028	246.579147	113.320480
931.270935	-4.801145	185.747818	103.411705
931.648560	-37.571239	109.499741	14.159000
932.026123	-40.054478	135.751831	16.640085
932.403687	-46.015079	132.780579	63.760235
932.781250	7.607089	139.218231	24.082586
933.158630	85.471291	265.854553	130.656784
933.536011	-33.101410	123.370155	38.964787
933.913208	-61.912453	130.304306	19.121069
934.290527	-86.263832	99.094971	-5.693169
934.667664	73.079285	194.159058	98.456635
935.044800	-35.584591	147.635864	53.843399
935.421814	-36.577839	122.874863	53.843399
935.798889	-9.268554	125.351578	29.043690
936.175842	-45.518105	89.183853	-18.104067
936.552673	-21.680342	116.930702	71.196854
936.929504	-21.680342	83.236366	29.043690
937.306274	12.073490	91.661819	51.363869
937.683044	-51.976021	96.617584	16.640085
938.059570	-57.937702	39.603626	16.640085
938.436218	84.975548	164.962494	58.802025
938.812744	-59.428150	26.210039	-10.657187
939.189148	-29.625185	74.314026	4.233749
939.565613	-23.666519	22.240973	29.043690
939.941956	-58.931332	65.886406	6.715252
940.318237	-19.197882	102.563477	61.281250
940.694458	-23.666384	88.192551	51.363869
941.070557	-60.918770	55.969654	108.366234
941.446655	35.391830	105.536339	1.752278
941.822693	-7.282997	93.148338	81.110939
942.198669	8.599726	50.514900	-0.729434
942.574646	-25.652763	73.322487	-23.069132
942.950562	20.012583	71.339760	-52.868759
943.326294	-26.149166	45.059647	-3.211249
943.702026	4.629479	58.944691	71.196854
944.077698	-36.081348	42.579750	-15.621625
944.453369	-18.204792	9.835675	26.563257
944.828918	-13.736571	45.555454	9.196651
945.204468	-23.170002	67.373558	1.752278
945.579834	-48.498672	36.627625	-0.729434
945.955261	-18.701403	59.936474	-25.551889
946.330627	-35.584728	74.314301	-77.713333
946.705811	-33.101410	39.603626	14.159000
947.081055	6.614704	19.263966	-20.586615
947.456177	-34.591358	86.210045	21.601812
947.831238	-57.440758	40.595730	-50.384846
948.206238	-14.729586	65.886406	41.444839
948.581238	-55.453571	60.432289	-50.384846
948.956116	22.989687	81.253693	-8.175058
949.330933	-54.459866	25.713802	24.082586
949.705811	-46.511787	72.826775	66.239258
950.080505	-56.447155	55.473801	51.363869
950.455139	-70.856728	78.279762	-28.034752
950.829773	-36.577839	51.506824	26.563257
951.204346	148.382751	276.231171	140.561096
951.578735	78.036316	190.695923	51.363869
951.953186	9.095972	96.617043	-33.000656
952.327515	-36.081348	76.792747	-18.104067
952.701843	-8.275902	65.390633	-20.586615
953.076172	-85.766647	19.760120	-42.933865
953.450195	-51.479393	43.075710	-60.321007
953.824341	-36.081348	76.296928	24.082586
954.198486	-62.409294	40.099613	-35.483837
954.572449	34.400043	157.042282	83.589241
954.946350	9.095972	66.877800	26.563257
955.320251	33.407703	109.499741	88.545403
955.694092	-34.591358	87.696968	-28.034752
956.067871	-10.261493	73.818329	46.404491
956.441589	1.651451	104.545441	73.675560
956.815125	-21.680475	54.481949	4.233749
957.188721	-22.176981	122.379562	19.121069
957.562256	-47.008503	55.473801	-67.774200
957.935730	-22.176846	70.843758	71.196854
958.309021	-38.067879	29.682772	78.632675
958.682373	-47.008503	29.682772	-37.967117
959.055664	-10.261493	37.619778	11.677810
959.428955	-58.931332	66.382042	46.404491
959.802063	-31.115047	17.775339	56.322697
960.175110	-27.142389	30.178703	6.715252
960.548157	-66.384354	30.178703	4.233749
960.921143	-30.618467	59.936474	19.121069
961.294128	-14.233008	22.737104	-8.175058
961.666809	-43.531319	29.682772	46.404491
962.039612	-35.584591	52.498322	1.752278
962.412415	-18.204792	50.019005	31.524153
962.785095	-53.963223	23.729219	29.043690
963.157715	-53.466316	56.961483	-20.586615
963.530151	-60.918636	64.398941	-42.933865
963.902649	-23.666519	74.314301	-20.586615
964.275146	-15.722346	45.555454	-0.729434
964.647522	-37.074604	44.563705	4.233749
965.019714	-64.893723	48.531147	-25.551889
965.392029	-24.163040	51.506824	-3.211249
965.764160	-45.021538	49.522827	31.524153
966.136292	-28.632055	54.978210	78.632675
966.508423	-51.976021	53.986214	4.233749
966.880371	-50.485760	86.705917	-20.586615
967.252319	21.501019	154.567123	88.545403
967.624207	-32.604946	65.390633	-72.743622
967.996094	10.088449	67.869316	46.404491
968.367737	18.027807	101.076920	-8.175058
968.739441	-31.611767	72.331062	14.159000
969.111084	-44.524971	74.809860	-33.000656
969.482666	-57.440895	32.659389	-102.568527
969.854248	-55.950363	13.309502	51.363869
970.225586	-24.659565	51.506554	71.196854
970.596985	-11.750864	58.944962	6.715252
970.968323	-26.149302	46.051392	56.322697
971.339661	12.073220	89.183853	68.718170
971.710754	28.943045	86.705917	16.640085
972.081909	-1.822791	111.481476	123.227509
972.453064	-22.673353	41.091709	34.004513
972.824097	87.949142	165.457458	66.239258
973.194946	-39.557819	18.767941	-8.175058
973.565918	1.155143	63.903164	19.121069
973.936768	-7.282862	37.123768	6.715252
974.307556	-47.505222	16.286943	-72.743622
974.678284	-11.254313	39.603626	9.196651
975.048828	-25.156094	76.296928	-20.586615
975.419495	33.407703	63.903164	-23.069132
975.790039	-32.108219	35.139431	26.563257
976.160522	-16.715393	62.415649	81.110939
976.530884	-37.571239	50.515034	-15.621625
976.901245	-20.687346	35.139568	-15.621625
977.271606	0.162515	55.473934	14.159000
977.641846	24.478050	72.331062	19.121069
978.012024	-22.176981	102.563339	53.843399
978.382019	-28.135494	33.651203	-40.450371
978.752136	41.840183	121.884117	53.843399
979.122131	-10.757901	99.590332	4.233749
979.492065	-45.021538	67.869453	-5.693169
979.861877	-40.054478	6.858314	-0.729434
980.231689	-71.850578	23.233095	-50.384846
980.601440	-32.108219	17.279301	-52.868759
980.971191	6.118438	56.961483	-15.621625
981.340820	-39.061306	28.690620	71.196854
981.710266	-14.233144	28.690620	-23.069132
982.079773	-16.218935	52.002708	24.082586
982.449280	-2.319398	39.107639	38.964787
982.818604	31.423512	86.705917	19.121069
983.187866	-32.108219	54.977943	16.640085
983.557129	-29.128754	37.619507	-42.933865
983.926331	-53.963223	43.571671	91.023399
984.295471	-21.680475	51.506824	21.601812
984.664612	-55.453571	28.194405	-30.517721
985.033569	-11.254313	41.587681	21.601812
985.402527	8.103342	68.365067	16.640085
985.771362	34.895939	41.091709	26.563257
986.140259	12.569571	86.210320	48.884232
986.508911	-2.319398	79.271225	-20.586615
986.877625	58.205597	139.218231	11.677810
987.246277	-37.074604	24.721586	31.524153
987.614929	3.636775	55.969791	63.760235
987.983459	3.140484	86.705917	-0.729434
988.351807	-16.218800	32.163071	41.444839
988.720215	-18.205063	-11.010763	-107.540932
989.088623	-62.906143	34.643406	-35.483837
989.456909	-4.801010	86.705917	9.196651
989.825012	-30.122026	41.587681	-40.450371
990.193115	-51.976021	9.835945	-75.228355
990.561279	-35.087837	95.130615	9.196651
990.929321	-39.557957	19.263966	46.404491
991.297302	-7.282997	37.123501	24.082586
991.665100	-37.571106	24.225607	-37.967117
992.033020	10.088449	66.382042	-65.289787
992.400818	-46.511787	23.233366	-45.417465
992.768494	-9.268689	65.886406	4.233749
993.136047	-11.750864	50.514900	48.884232
993.503723	-38.564655	36.131611	-95.110863
993.871277	-4.304652	71.339760	-8.175058
994.238770	-58.434647	64.398941	51.363869
994.606140	-49.492138	1.895216	-30.517721
994.973450	-74.832359	-12.499885	-60.321007
995.340759	-19.694231	6.858179	-95.110863
995.708008	-5.297507	43.075710	-65.289787
996.075195	-21.183975	37.123501	-30.517721
996.442200	-60.918636	41.091976	-47.901169
996.809265	-23.170002	64.894592	-97.596687
997.176270	-36.081348	9.835945	-65.289787
997.543152	-38.067879	38.115780	6.715252
997.910095	-31.611496	38.115780	-45.417465
998.276733	-30.618603	65.886406	-75.228355
998.643494	-51.976021	-36.334049	-10.657187
999.010193	-42.538090	-10.514083	-110.027153
999.376831	-27.639074	19.263966	-30.517721
999.743286	-42.041409	33.651340	-23.069132
1000.109802	14.058330	82.740738	76.154167
1000.476257	-24.163040	11.820994	66.239258
1000.842651	-32.604813	1.398911	21.601812
1001.208923	-23.666653	38.611645	-50.384846
1001.575134	-53.466450	48.035229	-77.713333
1001.941284	-30.121758	-37.327446	-18.104067
1002.307434	-48.001945	-9.024743	-65.289787
1002.673523	-43.531319	-15.478643	-45.417465
1003.039429	-43.034634	-4.060862	-70.258858
1003.405334	-21.680342	48.531147	-77.713333
1003.771179	-40.054478	-22.926134	120.750977
1004.137024	-5.297507	13.805707	4.233749
1004.502808	-44.524837	-10.017813	-18.104067
1004.868408	-25.156094	34.643406	31.524153
1005.234009	-52.969543	24.721586	9.196651
1005.599609	-23.666519	21.248564	1.752278
1005.965149	-50.982643	-0.586489	-20.586615
1006.330444	-32.108356	-31.367727	-37.967117
1006.695862	-35.088108	26.210039	-75.228355
1007.061218	-51.479393	11.324502	-13.139421
1007.426453	-1.326323	62.415649	53.843399
1007.791626	-34.591358	26.209904	6.715252
1008.156677	-31.611631	19.760120	-60.321007
1008.521729	-1.326593	81.749466	26.563257
1008.886780	-63.899857	29.186697	-50.384846
1009.251709	-21.183840	-14.982195	-90.139664
1009.616577	-4.304652	-9.521276	-132.408966
1009.981384	-41.544601	15.790623	-0.729434
1010.346130	14.058330	42.579750	-20.586615
1010.710754	10.584682	52.498455	-23.069132
1011.075439	55.230526	68.365204	71.196854
1011.439941	-31.115047	11.820724	46.404491
1011.804443	-24.659565	-34.347580	41.444839
1012.168884	-38.564522	16.782854	-13.139421
1012.533325	-70.856598	-23.422783	-23.069132
1012.897522	-31.115047	18.767941	6.715252
1013.261780	-56.447155	-7.535575	-100.082489
1013.626038	-23.666384	21.744839	-28.034752
1013.990112	6.118168	21.744839	24.082586
1014.354187	-34.591358	41.091709	-3.211249
1014.718140	1.155143	36.131611	16.640085
1015.082153	3.140484	71.339760	-13.139421
1015.446045	-15.225896	7.354439	34.004513
1015.809937	-20.687346	37.619507	21.601812
1016.173523	-42.538090	8.843328	1.752278
1016.537170	-43.034771	9.835945	78.632675
1016.900879	-29.128618	-5.550077	-13.139421
1017.264404	-25.652628	28.194538	-37.967117
1017.627991	-14.729450	1.895216	-67.774200
1017.991333	-64.396858	4.873233	-3.211249
1018.354675	13.561991	-20.443623	9.196651
1018.718018	-42.041275	4.873233	-20.586615
1019.081299	27.950884	29.682772	-40.450371
1019.444397	7.607358	28.690620	-37.967117
1019.807495	-40.054478	-12.003462	29.043690
1020.170593	-11.254448	5.369374	-62.805344
1020.533691	-41.048069	32.163342	-37.967117
1020.896606	-37.074604	-33.354233	-45.417465
1021.259460	-64.893723	-29.381424	-33.000656
1021.622253	-11.254448	-6.542953	-23.069132
1021.985046	5.125758	29.186697	66.239258
1022.347778	17.531773	35.139568	-47.901169
1022.710327	-50.982643	-37.824085	-102.568527
1023.072876	-57.937565	-35.837425	-37.967117
1023.435364	-27.638941	-47.758110	-37.967117
1023.797852	-35.584728	-10.514218	16.640085
1024.160278	-85.269600	-25.905420	-107.540932
1024.522461	-51.479259	-6.046445	-102.568527
1024.884766	-80.299248	-46.267960	-105.054680
1025.246948	-15.226031	17.279301	-40.450371
1025.609131	-53.466450	26.706001	9.196651
1025.971069	1.155143	17.775339	6.715252
1026.333130	-64.893723	-34.844055	-18.104067
1026.694946	45.807808	36.131611	-3.211249
1027.056885	40.848103	72.827042	103.411705
1027.418823	-61.912453	0.406287	-65.289787
1027.780396	-21.680475	6.858179	-3.211249
1028.142090	-57.440895	19.263966	14.159000
1028.503784	-17.211857	-23.919302	-75.228355
1028.865479	-43.034771	-26.401960	-15.621625
1029.226807	-41.047935	9.835945	-45.417465
1029.588135	-76.820206	-42.790817	-18.104067
1029.949707	-18.701403	-16.968147	1.752278
1030.310913	0.658831	-7.039330	36.484768
1030.672241	-31.611631	34.147373	26.563257
1031.033325	-9.765224	-12.996311	-60.321007
1031.394531	8.103342	35.635323	-30.517721
1031.755493	-21.183975	-19.947268	41.444839
1032.116577	-26.149166	-0.090031	-55.352783
1032.477417	-16.218935	37.123501	21.601812
1032.838257	-61.415607	-5.550077	-129.921631
1033.199097	-64.893723	-7.535710	-37.967117
1033.559937	-9.765224	1.398911	-60.321007
1033.920654	8.599726	5.369374	-37.967117
1034.281128	-37.571239	-40.804127	-57.836773
1034.641724	3.140484	45.555454	-5.693169
1035.002197	6.118168	48.035229	-15.621625
1035.362671	-31.611767	41.091709	6.715252
1035.722900	-25.156094	-0.090166	-15.621625
1036.083252	4.133197	26.210039	-0.729434
1036.443481	-76.323242	4.872963	1.752278
1036.803711	-18.701403	-14.982330	-15.621625
1037.163940	48.783623	56.961483	56.322697
1037.523804	-10.261493	36.131611	6.715252
1037.883789	-42.041275	-17.464611	-45.417465
1038.243774	-28.632055	-6.542953	-57.836773
1038.603638	-5.793874	6.361915	19.121069
1038.963257	-30.618332	14.302044	76.154167
1039.323120	-10.261493	-14.485751	-37.967117
1039.682861	-63.403137	-35.340805	-65.289787
>>>>>End Processed Spectral Data<<<<<
