Jaz Data File
++++++++++++++++++++++++++++++++++++
Date: Thu Dec 04 18:30:22 2014
User: jaz
Dark Spectrum Present: Yes
Reference Spectrum Present: Yes
Processed Spectrum Present: No
Spectrometers: JAZA2310
Integration Time (usec): 44700 (JAZA2310)
Spectra Averaged: 3 (JAZA2310)
Boxcar Smoothing: 0 (JAZA2310)
Correct for Electrical Dark: Yes (JAZA2310)
Strobe/Lamp Enabled: No (JAZA2310)
Correct for Detector Non-linearity: Yes (JAZA2310)
Correct for Stray Light: No (JAZA2310)
Number of Pixels in Processed Spectrum: 2048
>>>>>Begin Processed Spectral Data<<<<<
W	D	R	S
188.301102	0.000000	0.000000	0.000000
188.764923	0.000000	0.000000	0.000000
189.228699	-55.157009	-56.617527	-65.565857
189.692459	-80.002693	-68.211098	-86.273293
190.156158	-89.943909	-72.352242	-29.138206
190.619812	-17.081022	-0.338529	-10.105564
191.083435	-7.152321	-16.058130	-22.517393
191.547043	-21.218544	-23.505695	-17.552374
192.010590	1.947722	0.488759	-15.069955
192.474091	20.143333	11.241641	-7.623593
192.937561	1.120589	30.261271	27.941439
193.401001	11.873356	58.366199	25.460691
193.864410	20.143469	44.315529	37.035820
194.327759	10.219087	32.741817	24.633886
194.791077	54.865070	13.722850	-31.621220
195.254349	35.026657	3.797390	33.728775
195.717575	6.083616	4.624756	-54.800735
196.180786	4.429185	29.434532	56.047195
196.643951	-26.184008	26.127062	4.785368
197.107071	63.955612	-8.611509	18.018364
197.570145	-7.152051	8.760328	62.658627
198.033203	34.199986	3.797390	14.710392
198.496216	38.333496	-12.748300	0.649383
198.959167	-7.152321	-9.438925	-5.968824
199.422089	-20.390961	2.143165	-24.172491
199.884979	-16.253498	-19.367876	3.958005
200.347855	-38.599236	1.315900	26.287619
200.810654	-19.563526	21.992704	-15.897461
201.273422	-32.805099	-43.370575	-34.104206
201.736160	-31.977488	-40.059204	10.574965
202.198853	1.947722	-35.092701	13.056336
202.661514	-55.157009	-11.093522	21.326149
203.124130	-54.329086	-19.367876	-52.316738
203.586700	-43.566032	-43.370575	-49.004993
204.049240	-6.324802	-21.023024	-20.034899
204.511734	-84.973022	-14.403259	-49.004993
204.974197	-51.845108	-17.712914	-37.415237
205.436615	-28.666626	-9.438925	-31.621220
205.899002	-12.116327	17.030876	-17.552374
206.361343	-27.839073	-11.920972	-72.191414
206.823654	-10.461567	-53.305408	-49.832848
207.285919	0.293310	-18.540457	-14.242595
207.748123	-56.813034	-27.643667	-26.655298
208.210327	-75.860878	-17.713047	-49.832848
208.672485	-89.943779	-24.333183	-53.972546
209.134583	-18.736103	-40.059204	-51.488720
209.596649	-40.254787	-23.505695	-41.554058
210.058670	-22.873606	-36.748020	-38.242928
210.520676	-57.641132	-45.026264	-44.865513
210.982635	-72.547798	-40.059204	-29.965776
211.444534	-61.781517	-16.058130	-38.242928
211.906403	-13.771269	-69.867493	-19.207470
212.368240	-20.391096	25.300268	-57.284706
212.830048	-51.017094	-46.681862	-49.004993
213.291779	-46.877468	-25.988470	-52.316738
213.753494	-84.144676	-35.920353	-58.940788
214.215179	-22.873606	1.315900	-20.862474
214.676819	-19.563526	-10.266083	-67.222046
215.138412	-31.977354	-10.266217	-54.800735
215.599960	-22.046001	-12.748300	-23.345005
216.061493	-7.979581	-37.575699	-24.172491
216.522949	7.737866	-55.789448	-10.105564
216.984406	-44.393940	-12.748300	-4.314237
217.445801	-17.080887	-4.474874	-46.521244
217.907166	-31.977354	-16.057995	-63.081268
218.368484	-48.533394	-1.165694	-34.931843
218.829773	10.219357	-26.815994	-39.070625
219.291031	-5.497565	-52.477509	-21.689928
219.752228	13.527444	-58.273594	-10.932866
220.213379	-46.049660	-30.954336	-53.972546
220.674500	-51.017094	1.315900	-19.207199
221.135574	-41.910522	-51.649483	-1.005066
221.596634	-53.500900	-16.885517	-26.655432
222.057648	-50.189228	-70.695641	-34.104206
222.518600	-22.873606	-31.781933	-1.005066
222.979553	-17.908422	-28.471216	-27.482965
223.440430	-11.289009	-20.195580	5.612450
223.901276	-62.609550	-26.815994	-34.931980
224.362076	-30.321898	-56.617393	-24.172491
224.822845	-57.641132	-82.292007	-12.587640
225.283569	-44.393806	-26.816130	-14.242595
225.744278	-52.673000	-19.368147	-18.379780
226.204910	-24.528580	-9.438790	-22.517393
226.665512	-34.460487	-51.649483	1.476522
227.126114	-39.426937	-52.477509	-29.138206
227.586639	-29.494324	-58.273594	-21.689928
228.047119	-60.953365	-51.649620	-44.865513
228.507568	-24.528851	-77.322044	-58.112808
228.967972	-17.081022	-39.231491	-36.587563
229.428345	-41.910522	-1.992871	-77.160934
229.888687	-27.839073	-40.887062	-75.504341
230.348984	-0.533846	-8.611509	-34.931980
230.809219	-11.289009	-26.815994	-27.482965
231.269440	-40.254654	26.953846	-70.534821
231.729614	-26.184008	-37.575966	-10.105564
232.189758	-35.288132	-25.160957	-41.554058
232.649841	-15.426123	-25.160686	2.303650
233.109894	-11.289009	-40.059204	-1.005066
233.569901	-45.221725	-11.093522	-21.689793
234.029892	-44.393940	-38.403656	-30.793356
234.489822	-46.049522	-26.816130	-45.693306
234.949707	-36.943459	-37.575966	-2.659696
235.409561	6.910815	-21.023024	-5.141457
235.869385	-42.738270	-1.165694	-23.344870
236.329163	-42.738270	-29.298775	-48.177155
236.788895	-12.116327	-21.850613	-1.005066
237.248581	-3.842991	-35.092701	-49.004993
237.708237	-27.011536	-25.988201	-3.486893
238.167847	-75.032654	-9.438790	-9.278139
238.627441	-19.563526	-18.540457	0.649383
239.086960	-20.390961	-74.008751	-44.037731
239.546463	-27.011536	-32.609676	-44.037731
240.005920	-30.322170	-45.854057	-15.069955
240.465332	-32.805099	6.278911	-20.862474
240.924698	-32.805099	-35.092701	-19.207199
241.384033	-51.844975	-39.231491	-13.415247
241.843338	-10.461567	-29.298775	-22.517393
242.302597	-36.115788	-18.540457	-26.655298
242.761810	6.083616	-42.542816	-36.587563
243.220993	-26.183872	-35.092701	-27.482965
243.680115	13.527444	-30.126482	-42.381802
244.139221	-3.015654	-59.101574	-34.931980
244.598282	-84.144676	-55.789448	-15.897326
245.057297	-63.437592	-5.302097	-26.655298
245.516266	-0.533846	-59.929569	-47.349060
245.975189	-51.017094	-1.165694	-36.587563
246.434082	-24.528580	-11.093522	-43.209831
246.892944	-21.218544	-32.609539	-57.284706
247.351761	-46.877468	2.143165	-51.488720
247.810516	-9.634272	-14.403259	-34.104206
248.269272	-17.908691	-9.438925	-41.554058
248.727951	-46.049660	-35.920353	5.612450
249.186600	-41.082516	6.279046	-36.587563
249.645218	-41.082516	-23.505695	-23.345005
250.103790	-3.015789	-83.120338	-22.517393
250.562317	-19.563526	-67.382851	9.747953
251.020813	-3.842991	-91.405167	-36.587563
251.479279	-36.943726	-40.059204	-47.349060
251.937668	-26.184008	-35.092701	-65.565590
252.396057	-30.322170	-25.160957	-9.278274
252.854385	-58.469105	-21.850613	-21.689928
253.312683	1.120454	-69.867493	-49.004993
253.770920	-61.781517	-58.273460	-18.379780
254.229126	-26.183872	-33.437290	-83.788086
254.687302	-32.805099	-20.195580	-32.448959
255.145432	-12.116327	-21.850613	-24.172491
255.603500	-75.032654	-35.092701	-49.832848
256.061584	-42.738270	2.143030	-8.450861
256.519592	-50.189228	-21.850613	-9.278274
256.977570	-36.115788	-28.471216	-49.832848
257.435455	-36.115788	-33.437157	-43.209831
257.893372	-22.046001	-34.265057	-42.381802
258.351196	-44.393940	-25.160686	-20.862474
258.808990	-28.666626	11.241641	-34.104206
259.266754	-22.046135	-35.920353	8.093894
259.724487	-30.322170	-14.403259	-1.832510
260.182190	-38.599236	-47.509815	-30.793356
260.639832	-28.666761	-37.575966	-1.005336
261.097443	-22.046001	-35.920353	-36.587563
261.554993	-14.598622	0.488759	32.902084
262.012512	-41.082516	-40.887062	-55.628803
262.469971	-13.771269	-12.748300	-25.827774
262.927429	-74.204315	-24.333183	-29.138206
263.384827	-46.049660	-21.850477	-34.931843
263.842194	-31.977354	-63.242065	1.476522
264.299530	-35.288132	11.241641	-44.037598
264.756805	-31.149755	-30.954336	-51.488720
265.214050	8.564907	-25.988470	-26.655432
265.671234	-31.149755	-38.403793	12.229359
266.128387	-3.015654	-37.575966	-34.931843
266.585510	-77.517624	-32.609539	-68.050285
267.042572	-54.329086	-19.368147	8.920930
267.499573	-32.805099	-30.126482	-25.827774
267.956604	-41.082516	-19.368147	-15.069955
268.413574	-44.393940	-21.850613	-47.349060
268.870483	-22.046001	-37.575966	-42.381802
269.327362	-7.152321	-93.890701	0.649383
269.784180	-21.218544	-28.471216	-69.706543
270.240936	-3.842991	-30.126482	-8.450590
270.697693	-36.116058	-14.403259	-7.623323
271.154419	-70.063042	-38.403656	-48.177155
271.611053	-55.157009	-52.477375	-45.693306
272.067688	-19.563526	-40.887062	-24.999992
272.524292	-46.877468	-5.302097	-50.660847
272.980835	-57.641132	-11.920972	-45.693306
273.437347	-45.221725	-12.748300	-40.726326
273.893799	-1.361014	-12.748300	-39.898605
274.350250	-44.393806	-67.382851	-26.655432
274.806610	-55.157009	-4.474874	-35.759628
275.262939	-32.805099	-21.023159	-28.310513
275.719238	-33.632721	-41.714798	-21.689928
276.175507	-3.842991	-23.505695	-44.865513
276.631714	-31.149755	-60.757843	-9.278274
277.087891	16.835615	7.933156	-40.726192
277.544067	-33.632721	-59.101574	-46.521111
278.000122	-36.115788	-30.126482	-34.931843
278.456177	-25.356356	-49.993607	-13.415247
278.912201	10.219357	-11.093522	-34.104206
279.368164	-22.046001	-32.609539	-41.554058
279.824097	-46.877468	-28.471216	-75.504478
280.279968	-34.460354	-62.414028	-39.898468
280.735840	6.083616	8.760328	-27.482965
281.191620	-42.738270	-50.821606	-41.554058
281.647400	-49.361237	-28.471216	-78.817856
282.103149	-47.705288	6.279046	-10.932866
282.558838	-41.910522	-19.368147	-0.177903
283.014465	-34.460354	-21.023159	-60.597050
283.470062	-22.873606	7.106107	-29.965776
283.925629	-23.701088	-38.403793	-51.488720
284.381134	-42.738270	-55.789448	-29.965776
284.836639	-20.390961	-40.059204	-35.759899
285.292053	-23.701088	-51.649483	-35.759628
285.747467	-31.149755	-30.126482	-15.069955
286.202820	-34.460487	-48.337643	-34.104206
286.658142	-26.184008	-45.854057	-11.760315
287.113434	-7.979581	-15.230621	-34.931980
287.568634	-21.218409	-22.678080	-54.800735
288.023804	-27.011536	-11.093522	6.439520
288.478973	-32.805099	-43.370575	-56.456749
288.934113	-60.953499	-73.180420	-37.415237
289.389130	-60.125351	-70.695641	-62.253231
289.844208	-25.356356	-58.273594	0.649383
290.299164	-31.149755	-10.266217	-31.621220
290.754089	-69.234772	-48.337643	-38.242928
291.208984	-47.705288	-85.605789	-50.660847
291.663879	-22.873470	-44.198345	16.364536
292.118683	-49.361237	-30.954336	-44.865513
292.573456	-19.563526	-21.850613	-38.242928
293.028198	-38.599236	-58.273594	-20.862341
293.482849	-18.736103	-37.575966	-42.381802
293.937561	-31.149755	-5.302097	-30.793627
294.392151	-36.115788	-39.231491	-33.276577
294.846741	-14.598758	-18.540457	-33.276577
295.301239	-21.218409	12.068767	-79.646133
295.755737	-64.265785	-30.954336	-39.070759
296.210175	-61.781517	-19.368147	-37.415237
296.664581	-51.017094	-32.609539	-55.628670
297.118958	-51.844975	-45.854191	-35.759899
297.573242	-31.149755	-92.233627	-23.345005
298.027557	-72.547798	-49.993607	-33.276577
298.481812	-37.771408	-68.211098	-5.141592
298.935974	-24.528851	-20.195580	-23.345005
299.390137	-36.115788	-36.748291	-46.521244
299.844238	-34.460487	-64.898323	-51.488720
300.298340	-22.873606	-39.231491	-64.737518
300.752350	-29.494324	9.587624	-42.382072
301.206360	-70.891190	22.819544	-28.310513
301.660278	-49.361237	18.684820	-18.379780
302.114197	-26.184008	19.511707	-28.310513
302.568054	-41.910255	-35.920353	2.303785
303.021881	-14.598622	5.451839	-14.242595
303.475677	-27.839073	-19.368147	-30.793356
303.929413	-22.873606	-22.678080	-29.138206
304.383118	-24.528580	-1.992871	-20.034899
304.836761	-12.116327	-63.242065	-67.222176
305.290375	-72.547928	-21.023024	-61.425068
305.743958	-52.673000	7.933291	-25.000261
306.197510	-50.189228	-5.302097	-25.000261
306.650970	-64.265785	-21.850477	-13.414976
307.104431	-94.086334	-30.126482	-41.554058
307.557800	-52.673000	-49.993744	-35.759628
308.011169	2.774978	-26.816130	-5.968824
308.464508	-63.437592	-56.617393	-16.724844
308.917755	-25.356356	-64.898323	-44.037731
309.371063	-58.469105	-33.437290	-51.488720
309.824219	15.181486	-59.929569	-24.172491
310.277374	-70.063042	-33.437290	-22.517393
310.730499	-21.218409	-25.988470	-44.865513
311.183563	-31.149755	-38.403793	-11.760180
311.636597	-30.322170	-30.954336	-39.070625
312.089569	-17.081022	-30.126482	-36.587292
312.542511	-7.979581	-59.101574	1.476522
312.995422	-29.494324	-98.862221	-63.909451
313.448273	-35.288132	-58.273594	-28.310513
313.901093	-52.673000	-52.477509	-15.897461
314.353882	-52.673000	-20.195580	-73.019592
314.806580	-36.115788	-31.781933	-24.172491
315.259308	1.947722	-52.477509	-39.070759
315.711975	-30.322170	-34.265057	-58.940788
316.164581	-7.979581	-11.093657	-4.314237
316.617126	-42.738270	-11.920972	-13.415247
317.069672	-7.979581	22.819544	22.153000
317.522156	-3.015654	-24.333183	10.575235
317.974579	-12.116327	-21.850613	-3.486893
318.427002	-46.877468	-35.920353	-42.381802
318.879333	6.910815	-35.920353	-32.448959
319.331665	-7.979581	-12.748300	-27.482965
319.783936	-60.125351	-14.403259	-32.448959
320.236176	-2.188463	-40.059204	-50.660847
320.688354	-27.839073	4.624756	-36.587563
321.140503	-3.842991	-17.712914	-82.131165
321.592651	-12.943658	-9.438790	-36.587292
322.044647	-37.771542	-38.403793	-44.865513
322.496704	-46.877468	-37.575699	-37.415237
322.948639	-39.426937	-54.133591	-41.554058
323.400604	-0.533846	-40.887062	30.421812
323.852509	-33.632721	-53.305408	-32.448826
324.304352	-57.640995	-33.437290	-19.207199
324.756165	-21.218544	-22.678215	-61.425068
325.207916	-58.469105	-42.542816	-34.931980
325.659668	-51.844975	-61.585861	-16.724844
326.111328	-57.641132	-11.920972	-8.450861
326.562988	-42.738270	-0.338529	-52.316738
327.014557	6.910680	24.473328	-39.898468
327.466156	-31.977354	-12.748300	8.920930
327.917664	-6.324802	-17.713047	-26.655298
328.369110	-30.322170	-53.305408	-29.965776
328.820557	-12.943928	-40.059204	-36.587563
329.271942	-64.265785	-25.160686	-39.898468
329.723297	-23.701088	-31.781933	-64.737518
330.174561	-12.943658	-26.816130	-51.488720
330.625854	-18.736103	-56.617527	-12.587640
331.077026	16.008421	-35.092701	-18.379780
331.528229	-19.563526	-12.748300	-41.554058
331.979370	-40.254787	-53.305408	3.130901
332.430450	-17.908422	-30.126482	-4.314237
332.881500	-76.689110	-47.509815	-24.999992
333.332489	-48.533394	-12.748300	-20.862474
333.783478	-17.081022	-25.160686	39.516083
334.234406	-34.460487	-26.815994	-26.655298
334.685303	-74.204315	-24.333183	-17.552374
335.136078	-27.839073	-11.920972	-50.660847
335.586914	-20.390961	41.008884	-13.415247
336.037659	-32.805099	-13.575639	0.649383
336.488342	-27.011536	-23.505695	13.056336
336.939026	13.527444	-29.298912	8.920930
337.389648	-23.701088	41.008751	19.672415
337.840240	-10.461567	-28.471216	4.785368
338.290771	-3.015654	-12.748300	-29.965776
338.741272	13.527444	-23.505695	41.169403
339.191681	-27.011536	-31.781933	-2.659696
339.642120	-18.736103	-14.403259	20.499289
340.092468	-41.082516	26.127062	18.845394
340.542816	3.602087	24.473328	30.421812
340.993103	16.835615	-6.129467	23.807072
341.443329	-12.116327	16.203684	53.567886
341.893555	-36.943726	13.722850	18.845394
342.343689	-66.750290	26.127062	9.747953
342.793793	-17.908422	64.150848	23.806936
343.243866	11.046362	64.150848	4.785368
343.693878	-16.253498	55.886719	13.883303
344.143890	-45.221863	16.203953	66.790161
344.593842	-0.533846	71.587418	49.435299
345.043732	-14.598758	54.233944	25.460825
345.493591	-9.634272	41.835464	55.220814
345.943359	-27.011536	36.875427	45.302559
346.393158	-47.705288	69.934944	29.595078
346.842896	-52.673000	69.108620	11.402370
347.292542	-11.289009	34.395191	51.914917
347.742218	-32.805099	93.891579	51.914917
348.191803	-41.910522	111.233582	72.573997
348.641357	-80.830986	109.582191	81.661850
349.090881	-17.081022	127.745087	91.574219
349.540314	-15.426123	107.104973	109.742531
349.989777	-6.324802	159.104721	190.608322
350.439148	-19.563526	255.558304	220.287323
350.888489	-11.289009	425.842712	395.598572
351.337799	-47.705288	922.642761	758.696106
351.787048	36.680099	1353.562134	1125.567383
352.236267	-3.842991	1792.534546	1494.651611
352.685425	-23.701088	1976.949341	1603.819946
353.134552	-47.705288	1826.388062	1395.864258
353.583649	-12.116327	1373.016479	1153.210205
354.032684	-35.288132	985.406677	838.756042
354.481659	-22.873606	704.566772	650.711975
354.930634	-22.046001	528.452148	437.502563
355.379517	-71.719620	439.807190	368.469574
355.828430	-46.049660	398.726685	307.592590
356.277222	-49.361237	389.685303	346.264648
356.726013	-16.253498	342.814514	326.520081
357.174774	-25.356356	349.395050	282.896027
357.623444	-44.393806	342.814514	293.598938
358.072113	-18.735834	328.828888	296.891907
358.520721	-19.563526	356.797089	289.482819
358.969299	-51.845108	347.750031	314.999664
359.417786	-47.705288	354.329865	288.659485
359.866302	-33.632721	349.395050	328.165649
360.314697	-22.873606	375.709991	283.719360
360.763123	-30.322170	384.753204	295.245544
361.211456	-51.017094	341.992004	345.441895
361.659760	-19.563526	342.814514	310.884674
362.108032	-30.322170	433.236176	339.683929
362.556244	-68.406639	404.479553	353.667206
363.004456	-22.873606	409.410248	357.779388
363.452576	-36.943726	465.264038	430.109741
363.900696	-15.426123	616.158264	614.678894
364.348663	-36.943726	1227.799316	1043.389893
364.796722	-35.288132	2010.728271	1620.788086
365.244690	-35.288132	2662.024170	2059.919922
365.692596	-40.254787	2727.455078	2067.152344
366.140472	-29.494324	2164.172119	1785.435059
366.588287	-39.426937	1575.374634	1289.647461
367.036102	-1.361284	1149.800781	975.787415
367.483826	5.256542	791.226318	653.987305
367.931549	-31.977354	572.729675	498.256134
368.379181	-55.157009	553.054260	464.602417
368.826843	-33.632721	511.225342	444.073456
369.274384	-28.666626	516.967896	383.268738
369.721924	-24.528851	490.710785	393.954895
370.169403	-46.049660	525.171204	444.073456
370.616821	-4.670205	533.373413	453.106903
371.064270	-23.701088	511.225342	498.256134
371.511566	-19.563526	511.225067	494.153076
371.958923	-52.673000	538.294312	461.318085
372.406158	-37.771542	530.912781	500.717957
372.853424	-29.494324	535.013855	467.065613
373.300568	-28.666626	556.333801	518.768066
373.747711	-64.265785	562.072998	551.573730
374.194794	-46.877468	697.203918	553.213684
374.641846	-31.149755	651.371948	549.114075
375.088898	-66.750290	713.565063	557.313354
375.535828	-48.533394	755.268005	718.631226
375.982758	-46.049660	862.270874	799.554443
376.429596	-18.736103	1120.530151	1047.459839
376.876465	-31.149755	1744.954956	1526.204590
377.323242	-41.082516	2498.244629	2159.511719
377.769989	-6.324802	3642.041016	2900.542969
378.216675	-25.356356	4177.310547	3370.759033
378.663330	-15.426123	4075.822266	3289.108643
379.109985	-54.329086	3507.599365	3005.584473
379.556519	-18.736103	2899.592041	2505.596191
380.003052	11.873356	2370.211670	2080.008301
380.449524	-43.566032	1870.699219	1553.702026
380.895996	-24.528851	1468.595215	1266.113647
381.342377	-44.393940	1209.119629	979.046570
381.788727	-9.634272	969.924622	804.455872
382.235046	-1.361014	835.331360	737.440247
382.681274	-24.528851	738.099060	662.991821
383.127533	-62.609550	703.748718	643.343567
383.573669	0.293310	737.281494	600.751770
384.019836	-54.329086	728.286560	592.558167
384.465912	-74.204315	709.475037	599.113220
384.911957	-60.125351	738.099060	631.060120
385.357971	-19.563526	674.292114	569.610107
385.803925	-28.666626	652.190796	619.594055
386.249847	-15.426123	709.475037	599.932739
386.695679	-27.011536	714.382935	558.952881
387.141541	11.873356	701.294434	642.524536
387.587311	-35.288132	677.565430	672.813721
388.033051	-61.781517	773.249268	680.997742
388.478729	-29.494324	701.294434	679.361206
388.924408	-79.174278	688.203735	636.792603
389.369995	-30.322170	738.916626	628.603210
389.815552	-43.566032	708.657104	631.879333
390.261078	-65.094124	756.902771	661.354492
390.706543	-36.116058	769.980530	693.271790
391.152008	-60.953499	760.989685	715.359619
391.597351	-63.437592	803.480469	671.995422
392.042725	-27.839073	784.689636	676.087402
392.487976	-82.487602	822.266235	744.798706
392.933289	-61.781517	787.958191	675.269104
393.378479	-32.805099	805.114319	662.173279
393.823639	-22.873606	838.597229	680.998047
394.268768	-49.361237	838.597229	698.180908
394.713837	-40.254787	845.128845	693.271790
395.158905	-22.873606	785.506653	775.859924
395.603851	-12.116327	827.165833	770.956421
396.048798	-15.425988	798.579224	775.042542
396.493683	1.947722	831.248596	716.995544
396.938568	1.120454	907.146545	752.973999
397.383392	-57.641132	845.945190	775.042542
397.828156	-36.115788	896.541992	814.257507
398.272888	-48.533394	968.294617	751.339172
398.717560	-37.771408	921.011414	766.869812
399.162201	-11.289009	948.733093	788.116821
399.606781	-4.670205	876.144409	828.957642
400.051361	-80.002556	902.252563	775.042542
400.495819	-64.265785	896.542236	799.554749
400.940308	-55.157009	877.776794	837.939392
401.384705	-17.908422	931.612244	842.021545
401.829102	-30.322170	1007.401917	804.455872
402.273438	-9.634272	969.109741	815.891296
402.717682	-27.839073	958.514771	854.266724
403.161926	-8.806853	928.350708	856.715820
403.606110	-31.977354	1178.247314	1057.228027
404.050293	-22.873470	1597.197998	1469.562134
404.494385	-55.984947	2302.119385	1881.325684
404.938446	-26.183872	2686.765869	2173.959229
405.382477	-14.598622	2478.251953	2037.415161
405.826447	-35.288132	1859.422363	1655.521118
406.270386	-43.566032	1321.938354	1262.867065
406.714233	-27.839073	1011.474243	935.031982
407.158081	-15.426123	943.026611	806.089966
407.601868	-19.563526	951.178711	904.042175
408.045624	-38.599236	1095.315674	976.602234
408.489319	-70.063042	1178.247314	1023.034180
408.933014	-29.494324	1349.508667	1269.360107
409.376617	-2.188463	2039.670532	1961.015869
409.820190	1.120589	3702.877686	3362.835205
410.263702	-47.705288	5766.390625	4832.926270
410.707184	-26.183872	6985.049805	5838.652344
411.150635	-27.839073	7018.839355	5896.000488
411.594025	-32.804962	6112.599609	5340.750000
412.037384	0.293310	4759.262695	4362.102539
412.480682	-8.806853	3847.322266	3442.843018
412.923981	5.256542	3129.422607	2710.060303
413.367126	-12.943928	2547.010010	2229.318604
413.810333	-20.390961	2046.904541	1831.379761
414.253479	-9.634137	1593.965088	1432.317139
414.696533	0.293310	1303.282227	1149.958862
415.139587	-39.426937	1081.484253	1007.559998
415.582581	-35.288132	997.627258	864.061829
416.025543	-26.183872	866.351868	784.848511
416.468414	2.774978	914.487244	800.371521
416.911285	-29.494324	897.357971	759.513733
417.354065	-30.321898	913.671692	763.600769
417.796875	-46.877468	849.210510	757.061157
418.239594	-49.361370	835.331360	750.521484
418.682281	-62.609550	847.578003	749.704041
419.124908	-38.599236	860.638367	779.945679
419.567505	-34.460487	858.189941	811.807434
420.010071	-18.736103	871.248291	767.687012
420.452545	-65.093849	902.252563	828.957642
420.895020	-17.908422	882.672546	769.322021
421.337372	19.316456	876.144409	802.822266
421.779785	-17.908691	895.726318	776.677002
422.222107	-76.689377	902.252319	766.869812
422.664368	-26.184008	930.796936	818.341309
423.106628	-38.599236	894.910583	876.302856
423.548798	-51.017094	951.993774	832.223877
423.990967	-46.049660	958.514771	833.857056
424.433044	-35.288132	907.146729	807.723267
424.875092	-52.673000	967.479736	852.634583
425.317078	-28.666626	1013.917603	890.174194
425.759064	-31.977354	994.368713	815.891296
426.200989	-9.634272	1016.360962	828.957642
426.642853	-17.908422	1040.789185	904.857849
427.084686	-41.910522	991.109802	930.955017
427.526459	7.737866	1053.814209	891.805725
427.968201	-18.736103	1054.628052	936.662720
428.409912	-38.599236	1061.953613	899.148010
428.851563	-38.599236	1075.788574	935.031982
429.293121	20.970200	1104.263550	942.369751
429.734711	-24.528580	1091.247803	966.008179
430.176239	-48.533394	1057.070068	938.293213
430.617706	-28.666761	1101.823486	946.445801
431.059113	-49.361370	1134.353882	1011.632629
431.500488	6.910815	1088.807007	1006.745605
431.941833	-30.321898	1157.116699	1014.890381
432.383087	-38.599236	1114.837280	1052.344116
432.824341	-85.801384	1144.923340	1014.890381
433.265533	0.293310	1172.558838	1057.228027
433.706726	-72.547928	1345.455200	1130.446167
434.147827	-6.325072	1385.173096	1279.098877
434.588867	-11.289009	1616.591309	1457.418823
435.029877	-55.157146	2397.433838	2194.823486
435.470825	16.008421	4004.960693	3489.551025
435.911804	-25.356356	5477.514648	4533.111328
436.352661	-54.329086	5860.204590	4691.336914
436.793518	-23.701088	4909.362793	4107.455078
437.234283	-92.429245	3961.633057	3549.686279
437.675049	-6.324802	2998.271484	2846.385986
438.115723	-23.701088	2345.384277	2180.379639
438.556396	-22.873606	2125.635986	1865.217407
438.997040	-26.184008	2088.689453	1819.291626
439.437561	-38.599236	2044.493286	1815.261597
439.878113	-60.125351	2124.030029	1845.883301
440.318573	-61.781517	2198.679199	1918.362671
440.759033	-36.116058	2179.421143	1931.241577
441.199341	15.181486	2371.012207	2023.748779
441.639709	-13.771269	2385.425049	2078.400879
442.079956	15.181486	2462.253906	2091.255859
442.520264	-19.563526	2487.049072	2214.078369
442.960510	-58.469105	2576.575928	2169.143799
443.400604	-84.144539	2549.407227	2202.044678
443.840759	-39.426937	2512.637451	2190.811523
444.280762	-8.806853	2549.407227	2255.781982
444.720825	-22.873606	2457.454102	2200.439697
445.160767	-11.289009	2324.555664	2016.512573
445.600739	-9.634272	2116.802734	1952.164917
446.040558	-17.908422	1952.009033	1746.724365
446.480438	-50.189228	1679.587891	1520.542236
446.920258	-33.632721	1617.399170	1420.978271
447.359955	0.293310	1477.499023	1264.490601
447.799713	-35.288132	1339.779175	1259.620117
448.239319	-8.806853	1341.400757	1240.136719
448.678955	-6.324802	1306.527100	1154.022949
449.118500	-29.494324	1385.983398	1231.205078
449.558014	-49.361237	1530.092041	1422.598022
449.997498	-25.356356	2291.700684	2032.591675
450.436951	-13.771269	4445.918457	4208.913086
450.876343	-22.873470	9213.355469	8179.372559
451.315674	1.120589	14445.212891	11992.020508
451.754974	-13.771269	17031.265625	13927.715820
452.194183	9.392071	16698.714844	14152.517578
452.633392	1.120589	14580.150391	12742.797852
453.072510	-13.771269	11512.680664	10689.403320
453.511688	-19.563526	9226.195313	8738.348633
453.950684	-13.771269	7447.351074	6878.394531
454.389740	-10.461567	6024.397461	5506.428711
454.828735	-13.771269	4800.715820	4388.006348
455.267639	-42.738270	3634.927979	3374.721680
455.706543	-73.376114	2616.514893	2511.193359
456.145325	-54.329086	1948.790283	1915.947876
456.584137	-27.011536	1418.390625	1437.176025
457.022858	-52.673000	1083.925537	1101.167725
457.461578	-1.361014	940.580811	904.042175
457.900208	-22.873470	860.638367	797.103821
458.338867	-30.322170	724.197449	666.265930
458.777405	-20.390961	690.658508	697.362793
459.215912	-18.736103	678.384033	600.751770
459.654388	-13.770999	642.365601	610.583130
460.092773	-31.149755	644.822021	555.673462
460.531189	-24.528580	631.720032	533.532654
460.969513	6.083616	623.529968	558.133118
461.407806	-33.632721	616.977356	510.563995
461.846008	-23.701088	556.334351	549.113831
462.284241	-22.873606	525.991394	497.435577
462.722351	-36.943726	533.373413	512.204773
463.160461	21.797190	525.171204	495.794220
463.598541	-41.910522	506.302399	524.510254
464.036530	-13.771269	566.171814	514.666016
464.474518	-22.046001	522.710571	528.611389
464.912384	-34.460487	548.134705	540.913818
465.350281	-58.469105	561.253235	532.712524
465.788086	-16.253498	544.854736	467.886566
466.225891	-19.563526	611.243225	512.205017
466.663605	-15.426123	611.243225	581.904602
467.101318	-42.738270	648.915710	552.393860
467.539001	-33.632721	657.921204	579.445862
467.976563	-43.566032	641.546814	586.002441
468.414124	11.873356	671.836731	536.813171
468.851593	-57.640995	650.553284	566.330994
469.289063	-64.265785	598.954163	576.987305
469.726440	-8.806853	598.953857	576.987000
470.163849	-62.609550	607.147156	586.821899
470.601135	-49.361237	625.987366	594.196838
471.038422	-60.953365	621.891968	594.196838
471.475677	-43.566032	614.520142	543.373779
471.912811	-10.461701	621.072998	594.196838
472.350006	-6.324802	625.987366	586.002197
472.787048	-48.533394	636.633606	626.965332
473.224121	-21.218544	664.470093	562.232178
473.661072	-22.873606	596.495972	601.571289
474.098053	-43.566032	634.176819	586.002441
474.534943	-41.910255	633.357971	583.543579
474.971802	-28.666761	654.646606	602.390808
475.408630	-66.750290	716.836487	618.774475
475.845367	-8.806853	719.290527	615.498291
476.282104	-5.497565	698.840332	632.698181
476.718750	-32.805099	693.931580	647.437317
477.155426	-15.426123	706.203247	643.343567
477.591949	-26.184008	702.930786	667.903076
478.028503	-4.670205	720.926392	644.162292
478.464966	-36.943726	711.929016	641.705505
478.901428	-26.183872	730.739929	631.060120
479.337860	48.253044	712.747192	635.973816
479.774170	-12.116327	756.902771	667.084656
480.210510	-40.254787	747.910400	691.635559
480.646698	-13.771269	721.744141	649.074951
481.082947	-25.356356	750.363037	676.905762
481.519073	-41.910522	792.860413	720.267090
481.955200	-22.046135	752.815308	731.716370
482.391266	-24.528851	783.872559	744.798706
482.827301	-3.015789	844.312561	698.180908
483.263306	-42.738270	828.798828	721.084900
483.699188	-7.979581	860.638367	696.544739
484.135101	-33.632721	807.564636	721.084900
484.570923	-31.149755	843.496216	730.080750
485.006744	-30.321898	843.495972	769.322021
485.442413	-46.877468	818.182678	792.201904
485.878174	-26.183872	868.799988	819.974487
486.313782	6.910680	895.726318	781.580139
486.749390	-44.393940	799.396057	779.945435
487.184998	-50.189228	883.488342	859.164307
487.620453	-70.891190	867.167908	833.856750
488.055939	-23.701088	854.108215	795.469788
488.491333	-47.705559	851.659546	837.122742
488.926727	-31.977354	867.167908	853.450500
489.362030	-41.910522	954.438904	831.407410
489.797302	-52.673000	919.380249	882.830627
490.232513	-24.528580	900.620667	819.974731
490.667755	-62.609550	938.134949	837.939697
491.102905	-13.771269	915.302673	930.955261
491.537964	-40.254787	961.774963	918.723206
491.973022	-1.361014	1080.670654	908.120728
492.407990	-0.533846	1021.247314	926.878052
492.842957	-22.873606	1007.402222	900.779358
493.277832	-45.221725	968.294617	920.354370
493.712738	-55.157009	987.850891	921.985168
494.147491	-28.666761	963.404846	882.830627
494.582275	-35.288132	1029.390381	890.989929
495.017029	-29.494324	944.656982	858.348145
495.451660	-23.701088	1008.216614	908.120728
495.886292	-31.977354	990.295166	961.118042
496.320831	-31.977354	1002.514832	923.616272
496.755402	-22.046001	1048.930054	962.748230
497.189850	-30.322170	1135.166992	1009.189453
497.624298	-22.046001	1282.998535	1143.455200
498.058655	-29.494324	1414.340942	1283.156494
498.493042	-35.288132	1420.010742	1354.530396
498.927368	-7.152321	1406.239868	1340.747681
499.361572	1.120589	1392.466187	1290.458740
499.795807	-55.985081	1293.546875	1216.587402
500.229919	0.293310	1168.495483	1158.900024
500.664063	-28.666761	1133.540894	1088.964966
501.098083	-16.253498	1036.718140	988.009094
501.532104	-36.943726	996.812683	1004.301941
501.966064	-20.390961	997.627258	926.062683
502.399994	-51.017094	938.950134	868.142395
502.833893	-83.315926	948.733093	900.779358
503.267700	-31.977354	953.624146	873.038696
503.701477	-36.115788	998.441772	883.646545
504.135193	4.429185	936.504395	929.324402
504.568909	-34.460487	961.774719	955.412476
505.002502	-71.719620	965.034729	952.966797
505.436127	-18.736103	971.554565	876.302856
505.869629	-41.082516	958.514526	935.031982
506.303162	-46.049522	1012.288879	939.923645
506.736603	0.293310	976.443726	884.462891
507.169983	-50.189228	951.993774	937.477966
507.603363	-38.599236	964.220093	845.287354
508.036621	-69.234901	985.406921	875.487183
508.469940	30.892782	970.739685	929.324402
508.903107	-22.046001	1052.186035	932.585876
509.336304	-68.406776	1014.732239	920.354370
509.769379	-35.288132	1011.474487	915.461060
510.202484	-14.598622	997.627258	923.616272
510.635529	-34.460487	1030.204590	937.477966
511.068481	-43.566032	1022.061584	1009.188904
511.501434	-20.390961	1105.890503	1021.405151
511.934265	-42.738270	1058.697754	1027.920166
512.367126	-43.566032	1119.716675	1036.062256
512.799927	-59.297356	1057.070068	948.891418
513.232605	22.624304	1063.581177	918.723450
513.665344	6.910815	1067.650391	973.342468
514.097961	-31.149755	1079.043091	961.118042
514.530579	-36.943459	1127.035767	986.379822
514.963135	-16.253498	1157.116699	1032.805420
515.395691	-22.873606	1196.122192	987.194702
515.828064	-49.361237	1242.414551	1071.877563
516.260498	-55.157009	1222.114746	1093.846436
516.692871	-20.390961	1109.143921	1144.268066
517.125183	-11.289009	1215.617310	1104.421387
517.557373	-7.979581	1202.620972	1106.048096
517.989624	-3.842991	1108.330688	1088.151245
518.421753	-36.115788	1231.859131	1029.548462
518.853943	-38.599236	1192.872437	1066.994873
519.286072	-36.943726	1186.373047	1080.828613
519.718018	-33.632721	1257.027466	1179.217529
520.150024	-44.393940	1269.202515	1171.904053
520.581909	-35.288132	1336.535767	1147.520142
521.013855	-36.116058	1350.319580	1235.265015
521.445679	-32.805099	1368.964233	1223.084229
521.877502	-6.324802	1381.121216	1258.808472
522.309204	-40.254654	1418.390869	1278.287231
522.740906	-51.017094	1370.585205	1276.664307
523.172546	-55.985081	1368.153198	1305.062012
523.604187	-53.501171	1360.858276	1268.548584
524.035767	-52.673000	1307.338257	1214.150757
524.467224	7.737866	1187.185425	1190.592896
524.898682	-27.839073	1245.662354	1181.655518
525.330078	-28.666761	1209.931763	1065.366821
525.761475	-20.390961	1187.185181	1070.249878
526.192749	-72.547928	1155.490967	1095.473389
526.624023	-47.705559	1114.023804	993.712280
527.055237	13.527444	1096.129150	1026.291382
527.486389	-20.390961	1079.856934	1057.228027
527.917542	6.083616	1102.636597	1030.362671
528.348572	-27.011536	1127.035767	1031.177124
528.779663	-16.253498	1118.903809	1075.946289
529.210571	-16.253498	1181.497559	1095.473389
529.641541	-56.813034	1192.872803	1099.540649
530.072388	-20.390961	1308.149292	1158.900391
530.503235	-10.461567	1272.448853	1184.092896
530.934082	8.565042	1296.792114	1206.028198
531.364746	-53.501171	1403.809326	1335.071289
531.795532	-22.873606	1520.385376	1408.827515
532.226135	-70.063042	1595.581787	1526.204590
532.656738	-30.322170	1815.105469	1702.346313
533.087280	1.947722	2142.497559	2059.919922
533.517822	-8.806853	2668.410156	2521.586670
533.948242	-21.218544	4703.708008	4437.441895
534.378662	-45.221725	12971.600586	12017.244141
534.809082	-50.189228	30171.435547	25729.365234
535.239319	15.181486	46575.757813	38826.046875
535.669617	-53.500900	53321.921875	45005.363281
536.099792	5.256542	48741.015625	41944.332031
536.529968	-65.922195	41243.300781	37224.722656
536.960083	-84.973022	34956.394531	32932.867188
537.390137	-28.666761	28708.470703	28090.949219
537.820190	-19.563526	23127.628906	22822.500000
538.250183	-31.149755	18862.679688	18655.128906
538.680115	-55.157009	15602.781250	15104.803711
539.109985	-30.322170	13006.288086	12549.094727
539.539795	-69.234772	10908.206055	10308.309570
539.969543	-24.528851	8983.547852	8672.393555
540.399292	-23.701088	7352.419434	7139.483887
540.828979	-36.943726	5821.447266	5696.715332
541.258606	-15.426123	4428.659180	4296.139648
541.688171	0.293310	3403.089111	3350.154053
542.117737	-14.598622	2636.478027	2645.415527
542.547302	-24.528580	2097.525879	2122.579590
542.976685	1.947722	1838.475220	1797.528320
543.406128	-48.533394	1598.006104	1577.956421
543.835388	-29.494324	1438.638550	1382.088623
544.264771	-46.049660	1407.859985	1348.855469
544.693970	-25.356356	1361.668701	1382.899292
545.123230	-21.218544	2168.987549	2126.594971
545.552307	-16.253498	7572.035645	6571.312012
545.981506	5.256542	14072.321289	11323.000977
546.410583	-34.460487	17061.886719	13857.146484
546.839539	-28.666761	14115.658203	11671.960938
547.268555	-8.806853	9922.345703	8622.336914
547.697449	-36.116058	8013.210938	7418.415527
548.126282	-22.873606	6281.862305	6260.384277
548.555054	-12.943928	4185.173828	4437.441895
548.983887	-57.641132	2663.621094	2775.457031
549.412598	-57.641132	1941.547485	1936.875122
549.841309	-46.877468	1511.486206	1451.751343
550.269958	-51.845108	1271.637329	1244.196167
550.698486	-19.563526	1227.799072	1101.981445
551.127075	12.700338	1115.650513	1050.716309
551.555481	-31.149755	1144.923340	953.782471
551.983948	-54.329086	1000.885559	1005.930847
552.412292	-44.393940	1114.837280	1028.734009
552.840698	-35.288132	1210.744263	1077.573608
553.268860	-30.321898	1241.602783	1097.913940
553.697205	-26.183872	1205.057983	1130.446167
554.125366	-49.361237	1132.727661	1075.946289
554.553467	-25.356356	1063.581177	1038.504761
554.981628	-23.701088	1044.045532	999.414673
555.409607	-57.641132	1038.346924	921.169800
555.837646	-41.910522	941.395996	949.706543
556.265564	-46.049660	969.109741	864.061829
556.693481	-22.873606	946.287476	931.770569
557.121338	-30.322170	969.109985	858.348145
557.549133	-60.125084	871.248047	847.736267
557.976929	-11.289009	903.068176	885.278748
558.404602	-41.082516	952.808777	866.510010
558.832275	-53.501171	921.826843	859.980713
559.259888	-30.322170	938.134949	890.173950
559.687439	-48.533394	901.436890	835.489929
560.114929	-23.701088	915.302673	858.348145
560.542419	-22.873606	916.118408	877.934998
560.969788	0.293310	925.904358	873.854980
561.397156	-20.390961	876.960632	848.552551
561.824524	-0.533846	903.883789	855.083191
562.251770	-33.632721	928.350708	836.306335
562.679016	-65.093849	885.936157	824.874512
563.106140	-58.469105	912.855896	806.089722
563.533264	-26.184008	875.328491	849.368774
563.960327	-36.943726	876.144409	843.654480
564.387329	-80.830986	907.146545	864.061523
564.814331	-58.469105	903.883789	837.122742
565.241272	-37.771542	870.432251	865.693726
565.668213	-17.081022	881.040466	874.670959
566.094971	-53.501171	919.380554	915.461060
566.521790	-36.943726	947.918030	958.672791
566.948425	-41.910522	997.627258	985.564880
567.375183	-59.297089	1128.661865	1084.897095
567.801819	-70.891190	1417.580688	1372.363403
568.228394	-55.157009	2060.567139	1908.702637
568.654846	-35.288132	2745.799316	2647.011963
569.081421	-19.563526	3135.777344	2946.711182
569.507874	-38.599236	2952.127197	2753.132080
569.934265	-35.288132	2346.986084	2304.679199
570.360596	-47.705288	2035.651245	2055.901611
570.786865	-34.460487	1801.402588	1845.883301
571.213074	-32.804962	1450.784546	1603.011841
571.639282	-27.839073	1283.810181	1279.098877
572.065430	-12.116327	1040.789185	1039.319092
572.491516	29.239180	974.814148	984.750183
572.917603	-20.390961	1004.958496	864.061523
573.343567	-51.017094	981.332825	917.092285
573.769531	-14.598758	897.357971	809.356995
574.195435	-54.329086	958.514771	873.039001
574.621277	19.316456	894.094788	920.354370
575.047119	-56.813034	1053.000000	895.068726
575.472839	-7.152321	1105.890259	1007.559998
575.898560	-13.771269	1401.378540	1266.925293
576.324158	-12.116327	2476.652344	2156.300781
576.749817	-33.632854	4021.499268	3328.753174
577.175293	-58.469105	4800.715820	3873.501465
577.600830	32.546341	4416.889648	3620.854492
578.026306	-33.632721	3623.862305	3201.834229
578.451721	14.354539	4134.838379	3561.551025
578.877136	-6.324802	5065.508789	4388.006348
579.302429	-52.673000	5249.492676	4494.696289
579.727661	-26.184008	4529.040039	3952.330811
580.152832	-60.125351	3295.297852	2953.077881
580.578064	-66.750290	2792.840088	2530.379883
581.003113	-31.149755	2338.975586	2300.672119
581.428223	-51.845108	1916.596558	1873.271729
581.853271	-31.977354	1462.928589	1570.681030
582.278198	-12.116327	1302.471069	1284.779175
582.703125	-48.533394	1143.297241	1033.619873
583.127930	-18.736103	1079.856934	1042.575317
583.552795	-69.234901	1054.628052	1053.972046
583.977539	-15.426123	976.444031	952.152039
584.402283	6.083616	1017.989868	1008.374512
584.826965	-39.426937	985.406921	1026.291382
585.251587	-11.289009	1087.993530	1018.962280
585.676208	-63.437725	1204.245850	1152.397339
586.100647	-42.738270	1263.521118	1248.255859
586.525208	-19.563526	1408.669922	1371.552979
586.949524	-54.329086	1753.020996	1635.328979
587.373962	-32.805099	2272.463379	2136.230469
587.798218	-87.458275	4119.104004	3956.270996
588.222534	15.181486	9267.727539	8367.982422
588.646729	-48.533394	17701.140625	15368.209961
589.070984	-60.125351	27183.195313	22769.687500
589.495117	-95.743599	33707.425781	28248.117188
589.919128	-31.149755	35833.539063	30555.134766
590.343201	5.256542	33349.394531	29395.523438
590.767151	-42.738270	29085.277344	26590.500000
591.191101	-80.002693	24143.386719	22865.781250
591.614990	-51.017094	19716.335938	19491.154297
592.038818	-27.839073	15562.575195	16015.728516
592.462524	-15.426123	12319.509766	12809.291016
592.886292	-34.460487	9563.391602	10223.576172
593.310059	-66.750290	7744.712891	8041.550781
593.733582	-14.598758	6444.723633	6484.206055
594.157227	-25.356356	5545.913574	5613.647949
594.580750	-52.673000	4907.799805	4952.476074
595.004272	-75.032516	4468.665527	4366.812988
595.427673	-55.985081	4004.960449	4005.901611
595.851074	-62.609550	3574.051270	3512.501465
596.274353	-17.908422	3300.849365	3337.472900
596.697632	-55.985081	3085.725342	3101.771729
597.120911	-17.908422	2858.976318	2835.231445
597.544067	-46.049660	2784.868896	2662.977539
597.967224	-89.943779	2575.777100	2580.725586
598.390320	8.564907	2389.428467	2434.406250
598.813354	-57.641132	2334.970703	2311.089844
599.236328	-76.689110	2201.086426	2179.577148
599.659241	-60.125351	2071.817627	2046.256958
600.082153	-60.953365	2055.745605	1944.118286
600.505005	-19.563526	1898.884888	1923.997314
600.927795	-41.910522	1848.143799	1922.387573
601.350525	3.602087	1786.084717	1809.619873
601.773254	-26.183872	1721.557373	1716.873047
602.195862	-81.659286	1677.165771	1660.366455
602.618408	-37.771542	1651.326172	1575.531616
603.040955	-46.877468	1585.882935	1566.638672
603.463440	-12.943658	1489.639282	1452.560913
603.885925	-7.152321	1520.385132	1417.738037
604.308350	-4.670205	1419.200806	1391.812988
604.730652	-1.361014	1402.188599	1317.229370
605.152893	-32.805099	1319.505371	1296.949707
605.575195	-45.221725	1326.804321	1279.098633
605.997375	-7.152051	1270.014038	1219.835938
606.419495	-17.081022	1188.810425	1199.529663
606.841553	-35.288132	1200.184204	1148.332886
607.263672	5.256542	1153.865356	1112.555542
607.685608	-25.356356	1127.848755	1156.461792
608.107605	-0.533846	1121.343384	1093.032715
608.529480	-1.361284	1108.330322	1003.487488
608.951294	-55.157009	1148.174805	1057.228027
609.373108	-33.632721	1069.278076	1010.003601
609.794800	-43.566032	1118.090332	1095.473389
610.216553	-48.533119	1158.742554	1105.235107
610.638123	-41.910522	1239.166992	1135.324829
611.059753	-51.845108	1144.110229	1099.540649
611.481262	1.120589	1135.166992	1054.785889
611.902832	-41.082516	1070.091919	1023.034180
612.324219	-24.528851	1074.160889	990.453613
612.745605	-24.528580	1048.116089	962.747925
613.166931	-29.494595	1012.288879	975.787170
613.588196	-9.634272	980.518066	904.042175
614.009460	8.564907	976.443726	911.383240
614.430664	-61.781517	903.068176	899.148010
614.851807	-42.738270	991.110046	935.847229
615.272827	-53.500900	1056.255859	1018.147949
615.693909	-46.049660	1201.809082	1058.855835
616.114929	-28.666761	1224.550781	1190.592896
616.535889	-34.460487	1192.872437	1153.210205
616.956787	-53.501171	1101.009888	1053.158081
617.377563	-5.497565	1046.487915	999.414673
617.798340	-63.437725	1024.504639	930.955261
618.219055	-41.910522	910.409058	932.585876
618.639832	-20.390961	870.432007	843.654480
619.060364	-38.599236	921.011414	838.756042
619.481018	-29.494324	869.615967	820.791382
619.901611	-35.288132	815.732788	792.201660
620.322083	-51.017094	775.700928	756.243835
620.742493	-24.528851	801.029724	738.257874
621.162842	-17.908422	796.944946	767.687012
621.583191	-17.908422	711.111145	719.449341
622.003418	-19.563526	707.839111	728.445374
622.423706	-38.599236	775.701172	682.634521
622.843872	-29.494324	729.104553	696.544739
623.264038	-84.144539	696.385864	667.084656
623.684143	-51.845108	707.839111	716.177490
624.104126	7.737866	731.557617	650.712280
624.524170	-61.781517	734.828674	649.893616
624.944031	-70.891190	700.476440	631.060425
625.364014	-22.046001	733.193115	646.618408
625.783752	-15.426123	711.111145	624.508240
626.203552	-11.289009	696.385864	588.460754
626.623230	-6.324802	688.203735	597.474670
627.042969	-50.189228	675.928772	621.232056
627.462585	-24.528580	654.646606	595.016174
627.882141	-33.632854	702.112732	603.210022
628.301697	-63.437592	638.271484	649.074707
628.721130	-63.437592	613.701050	617.136414
629.140625	8.565042	671.017761	610.583130
629.559998	-13.771269	616.977356	567.150879
629.979309	-34.460487	632.538879	569.610107
630.398560	-41.082516	595.676697	597.474670
630.817810	4.429185	564.532410	563.052124
631.237000	-40.254787	634.995667	581.904602
631.656067	-51.845108	628.444153	554.033508
632.075195	-23.701088	538.294312	563.871887
632.494202	-9.634272	513.686401	576.987000
632.913208	-38.599236	575.188721	558.133118
633.332092	-35.288132	548.134705	518.768066
633.750977	-17.908422	585.023621	517.947754
634.169739	-60.125351	519.429016	544.194031
634.588562	-48.533394	498.917572	513.845703
635.007263	2.774978	538.294312	489.228851
635.425964	-7.152321	548.954590	494.973633
635.844543	7.737866	561.253235	476.916931
636.263123	-76.689377	521.069824	496.614777
636.681641	-42.738270	590.760071	559.772644
637.100037	-6.324802	544.854736	495.794220
637.518494	-45.221725	498.917328	493.332489
637.936829	-10.461567	541.574585	492.511322
638.355164	-17.081022	569.450989	477.737732
638.773438	-10.461701	536.654236	490.870117
639.191650	-7.979581	507.122833	444.894684
639.609863	-78.346008	484.965576	513.025391
640.027893	-36.943726	523.530762	523.690063
640.445984	-21.218544	530.912781	508.102844
640.863953	-21.218544	535.833862	519.588318
641.281921	-5.497430	532.553345	467.065613
641.699829	-12.116327	539.934326	517.127197
642.117676	-20.390961	504.661255	430.931152
642.535461	-51.017094	556.334106	429.288330
642.953247	-12.943658	493.993439	517.127197
643.370972	-38.599236	562.892944	475.275024
643.788635	-37.771408	493.172852	462.960449
644.206177	-89.943779	487.427887	485.945923
644.623718	-12.116327	518.608765	480.200043
645.041260	-61.781517	525.171204	487.587250
645.458618	-60.953365	491.531372	472.812103
645.876099	-37.771408	489.890137	453.928131
646.293396	-53.501171	436.521759	436.681274
646.710693	-42.738270	494.814056	467.065613
647.127991	-89.943779	480.040924	478.558502
647.545166	-19.563526	476.757416	480.200043
647.962341	-29.494324	448.841400	473.633240
648.379333	-17.080887	492.352264	464.602417
648.796448	-50.189228	512.045715	439.145416
649.213379	14.354539	488.248840	460.497070
649.630310	-14.598622	477.578186	435.038483
650.047180	-47.705559	486.607513	388.201050
650.463989	-17.081022	448.020233	458.033844
650.880859	-15.425988	497.275970	379.980255
651.297546	-35.288132	443.913727	389.022980
651.714233	-41.082516	471.831848	444.073456
652.130859	-28.666761	460.337646	419.429749
652.547485	11.046362	452.126190	419.429749
652.963928	-16.253498	481.682434	396.420563
653.380432	-7.979581	471.831848	386.557037
653.796814	-7.152321	478.398987	431.752930
654.213196	-23.701088	589.940369	555.673462
654.629578	-61.781517	854.108215	772.590759
655.045837	-53.500900	1119.717041	996.156006
655.462036	-43.566032	1260.274292	1033.619873
655.878174	-37.771408	1057.070068	983.120728
656.294312	-44.393940	959.329834	864.061523
656.710327	-36.943726	840.230225	827.324646
657.126404	-9.634272	729.104553	727.627686
657.542358	-15.426123	723.379639	640.886780
657.958252	-31.149755	616.158264	583.543579
658.374084	-13.771269	551.414490	536.813171
658.789917	-22.873606	496.455444	491.690735
659.205688	-50.189228	434.878967	467.065338
659.621338	-64.265785	444.735199	421.073090
660.037048	6.083616	455.411102	428.466827
660.452637	-30.321898	485.786255	393.132874
660.868164	-28.666626	459.516632	422.716095
661.283691	-51.017094	439.807190	417.786560
661.699158	-7.979581	420.913300	442.430603
662.114502	-46.877468	397.904602	373.403015
662.529846	-68.406639	391.329224	391.488861
662.945129	-19.563526	399.548462	400.529968
663.360413	-54.329086	379.820618	410.391449
663.775635	-47.705288	391.329224	383.268738
664.190674	-14.598758	373.243378	397.242645
664.605835	-34.460487	371.598969	379.158203
665.020813	-45.221725	429.950256	379.158203
665.435791	-30.322170	399.548584	370.936493
665.850769	1.120589	360.909210	346.264648
666.265625	-48.533394	369.954529	396.420563
666.680420	-16.253498	388.041473	392.311005
667.095215	-26.183872	437.343353	343.796783
667.509949	-12.943658	388.041321	397.242371
667.924622	-34.460487	425.021118	362.713440
668.339233	-12.943658	394.617126	334.747833
668.753784	-19.563526	375.709991	389.022980
669.168335	-23.701088	414.340302	348.732178
669.582825	-23.701088	515.327332	384.090851
669.997192	-41.082516	865.535217	853.450500
670.411560	-61.781517	2025.200439	1666.826172
670.825867	-62.609550	2973.610352	2494.401855
671.240173	-44.393940	3084.135498	2682.930420
671.654358	-12.116327	2345.384277	2114.549072
672.068481	-12.116327	1764.312500	1643.406372
672.482605	-22.873606	1482.355591	1475.227905
672.896667	-46.049660	1297.603394	1321.284790
673.310669	-7.979581	993.554077	1127.193848
673.724609	-49.361237	816.549194	810.174011
674.138489	-40.254654	566.991699	629.422058
674.552307	-33.632721	536.654236	458.033844
674.966064	-2.188463	410.231903	434.217133
675.379822	-4.670205	428.307281	436.681274
675.793579	-2.188598	357.619690	420.251312
676.207153	-70.891190	364.198547	357.779388
676.620789	-28.666761	364.198547	366.825012
677.034241	11.046362	360.086761	316.645538
677.447754	-18.735834	354.329865	328.165649
677.861206	-38.599236	372.421112	384.090698
678.274597	-43.566032	331.297058	305.123566
678.687866	-6.324802	374.065521	308.415680
679.101135	-60.953499	330.474396	357.779388
679.514404	-41.082516	352.684967	330.634033
679.927551	-35.288132	384.753204	296.068817
680.340698	-35.288132	355.974731	284.542786
680.753723	-51.017094	304.963470	330.634155
681.166748	27.585663	325.537567	339.683685
681.579712	-57.641132	234.961273	282.896027
681.992615	-37.771408	323.891907	328.165649
682.405457	5.256542	360.909210	314.999786
682.818298	-16.253498	319.777527	289.482697
683.231018	-44.393940	286.852844	288.659485
683.643738	-31.977354	328.005890	258.189484
684.056335	-28.666761	364.198547	300.184479
684.468994	21.797190	385.575195	370.114197
684.881531	-29.494324	489.069458	427.645386
685.293945	-7.152321	526.811829	442.430603
685.706482	3.602087	406.123108	428.466949
686.118774	-22.873606	392.973297	369.291748
686.531128	-18.736103	383.931091	351.199890
686.943481	-27.011536	346.927399	319.937317
687.355713	-31.977354	346.104950	341.329071
687.767883	-37.771408	299.201538	267.249756
688.179932	-21.218409	309.901947	262.307922
688.592041	-12.116327	316.485748	237.593307
689.004089	-59.297089	303.317413	253.246933
689.416016	-56.813034	319.777527	333.102295
689.827881	-52.673000	312.371002	261.484192
690.239868	-71.719620	392.973297	320.760132
690.651611	-18.736103	372.421112	347.909729
691.063354	-31.977354	329.651581	362.713715
691.475098	-48.533394	332.119751	320.760254
691.886719	-31.149755	346.927399	333.924927
692.298340	-62.609550	291.792603	310.061737
692.709900	-22.873606	289.322845	310.061737
693.121460	-36.115788	278.619080	303.477234
693.532837	-58.469105	249.791946	314.176758
693.944214	-72.547928	281.089264	268.073273
694.355652	-22.873470	233.313217	259.013397
694.766846	-26.183872	216.005905	227.704666
695.178101	-42.738270	300.024902	222.759827
695.589294	-69.234901	286.029602	243.361069
696.000366	-80.002556	250.615692	234.297318
696.411438	-21.218544	241.553268	234.297318
696.822510	-80.002556	291.792725	252.423233
697.233459	-89.943779	232.489105	220.287186
697.644409	-27.839073	251.439545	202.151840
698.055298	-19.563526	230.841125	251.599503
698.466064	-19.563526	258.029541	220.287186
698.876831	7.737866	243.200958	209.571503
699.287537	-18.735834	253.087250	248.304260
699.698181	-31.149755	262.147980	203.800705
700.108826	-50.189228	259.677063	226.880615
700.519348	-31.977354	286.029602	182.361588
700.929810	-4.670205	325.537567	215.341751
701.340271	-12.116327	209.411438	231.825272
701.750732	-33.632721	268.736969	224.408020
702.161011	-80.830986	269.560455	213.693192
702.571350	-28.666761	234.961273	168.339615
702.981567	-21.218544	265.442627	185.660492
703.391724	-53.501171	228.368683	214.517395
703.801880	-39.426937	219.302994	195.555893
704.211914	-31.149755	236.609406	237.593307
704.621948	-65.093849	278.618958	216.165955
705.031921	-26.184008	232.489243	232.649246
705.441895	-26.183872	241.553009	250.775787
705.851746	1.947722	227.544647	284.542633
706.261536	-7.979581	225.896545	213.693192
706.671265	-36.116058	230.841125	259.837006
707.081055	-16.253498	291.792725	217.814453
707.490662	-22.046135	199.518265	202.976212
707.900330	-35.288132	239.905121	209.571503
708.309814	-33.632721	208.587006	188.958954
708.719299	-25.356356	260.500671	239.241241
709.128784	-39.426937	235.785202	203.800705
709.538147	-62.609550	209.411438	207.922791
709.947510	7.737866	240.729126	223.583939
710.356750	-48.533394	230.841125	193.082153
710.766052	13.527444	206.938400	189.783783
711.175171	-40.254787	173.953568	216.166077
711.584290	-25.356356	244.024918	207.098465
711.993347	-25.356356	223.423904	200.502777
712.402405	-0.533846	194.571030	204.625198
712.811401	-22.046001	212.708893	237.593307
713.220276	-34.460487	167.354584	175.763367
713.629150	-11.289009	202.816269	215.341614
714.037964	-23.701088	219.302994	195.555618
714.446777	25.931833	187.974274	182.361588
714.855408	-25.356356	234.961273	180.712128
715.264099	-37.771408	192.921906	184.011139
715.672668	-29.494324	239.905121	212.044434
716.081177	18.489565	159.929672	165.039902
716.489746	-58.469105	214.357483	127.079987
716.898132	-31.149755	243.201096	152.664200
717.306519	-5.497565	230.841125	204.625198
717.714844	-30.321898	183.026093	140.286118
718.123108	-48.533394	178.077789	205.449554
718.531372	-24.528580	198.693726	135.334198
718.939514	-12.943658	209.411301	215.341751
719.347595	-18.735834	204.464981	209.571503
719.755676	-19.563526	190.448212	162.565063
720.163696	-27.011536	182.201447	155.139709
720.571716	-16.253498	202.816269	179.062637
720.979614	-50.189228	195.395523	185.660492
721.387451	-12.943658	201.991745	172.463928
721.795227	-18.736103	293.439087	183.186234
722.202942	-55.985081	185.500229	221.111450
722.610718	-1.361284	145.077515	164.214890
723.018311	-27.011536	211.060104	207.098206
723.425903	-41.082516	198.693726	199.678360
723.833374	-43.566032	166.529739	153.489380
724.240906	-27.839073	179.727310	173.288971
724.648376	-63.437592	198.693726	191.432983
725.055725	-70.891190	131.872162	163.389984
725.463013	-28.666761	166.529465	184.010864
725.870300	-53.500900	193.746414	178.237930
726.277466	-14.598622	219.302994	206.273880
726.684631	-40.254654	183.850998	190.608322
727.091797	-66.750290	177.252808	168.339615
727.498779	16.008421	185.500229	133.683334
727.905823	-21.218544	190.448212	174.113739
728.312805	-36.116058	160.754883	131.207092
728.719666	-13.771269	175.603348	175.763367
729.126526	-16.253498	149.203293	133.683472
729.533264	-48.533394	169.004395	148.538406
729.940063	-10.461567	167.354584	151.014084
730.346680	1.120589	220.951416	160.914810
730.753357	-18.736103	168.179565	153.489243
731.159851	-25.356356	131.872437	161.740005
731.566406	34.199986	169.004395	133.683334
731.972900	-31.977354	157.454636	114.696671
732.379272	-37.771408	188.798828	157.614838
732.785645	-27.839073	201.991745	165.864777
733.191895	-20.390961	176.428085	154.314682
733.598206	-34.460487	187.149689	157.614838
734.004333	-66.750290	169.004395	164.214890
734.410522	-39.426937	216.005905	128.730896
734.816528	-55.984947	183.026093	161.740005
735.222656	12.700338	184.675613	107.265167
735.628662	-36.943726	138.475266	191.432846
736.034546	-34.460354	195.395782	179.062637
736.440430	-40.254787	176.428085	166.689911
736.846252	-18.736103	158.279617	164.214890
737.252014	-40.254787	126.919701	191.432846
737.657715	-22.046001	163.229660	168.339615
738.063354	-30.321898	139.300507	153.489380
738.468933	-64.265785	187.149551	165.864777
738.874512	-27.011536	161.579819	186.485092
739.280029	-24.528580	107.104973	176.588242
739.685486	-99.886841	175.603210	139.460892
740.090881	-7.152321	143.426788	174.113739
740.496216	-17.080887	243.200958	189.783783
740.901550	-52.673000	128.570602	159.264908
741.306702	-70.891190	103.801926	157.614838
741.711914	-22.046135	159.929672	141.936661
742.117004	-6.325072	175.603210	142.761856
742.522095	-84.144539	179.727310	153.489243
742.927124	-24.528580	194.571030	152.664337
743.332031	-19.563526	187.149551	107.265167
743.737000	-48.533394	172.304031	136.159485
744.141785	-46.049660	192.921906	130.381760
744.546631	-51.844975	178.077515	80.009659
744.951355	-47.705288	141.776413	126.254578
745.356079	-8.806853	211.884369	176.588104
745.760620	-17.908422	148.378448	145.237762
746.165283	-75.860741	135.999222	162.564926
746.569824	-25.356356	168.179428	168.339737
746.974243	-35.288132	163.229797	169.164581
747.378723	-55.157009	175.603210	152.664200
747.783020	-91.600792	154.154205	139.460892
748.187378	-27.011536	147.553070	152.664200
748.591614	-9.634272	158.279617	155.139709
748.995850	-51.844975	197.869278	142.762131
749.399963	-35.288132	171.478973	119.650406
749.804077	-15.426123	142.601608	138.635651
750.208130	-26.184008	112.059189	99.007248
750.612122	-21.218544	121.141075	156.789841
751.016052	-7.152321	138.475266	100.658928
751.419922	8.564907	140.125870	128.730896
751.823792	-15.426123	131.872437	117.173454
752.227478	-45.221725	186.324966	113.045242
752.631226	-21.218544	164.054688	179.887451
753.034851	-45.221725	138.475266	151.013947
753.438477	-17.908422	149.203552	118.824501
753.842102	-29.494324	74.066109	171.639145
754.245544	-13.771269	158.279617	160.089859
754.648987	-41.910255	149.203552	152.664200
755.052368	-40.254654	139.300644	107.265305
755.455750	-23.701088	121.141075	145.237625
755.859009	-3.015654	118.664322	84.966248
756.262268	-40.254654	150.853714	117.173454
756.665405	-42.738270	139.300644	109.742531
757.068542	-20.390961	109.582191	146.062912
757.471680	39.986980	160.754883	101.484810
757.874634	3.602087	154.154205	152.664200
758.277588	16.835346	150.853851	89.096107
758.680420	-41.082516	87.283859	117.998978
759.083374	4.429455	102.976204	137.810013
759.486084	-32.805099	116.187607	160.914810
759.888916	-46.877468	112.884926	129.556259
760.291504	-50.189228	152.503983	84.965973
760.694214	-30.322170	107.104973	124.603470
761.096802	-13.771269	137.650024	108.916893
761.499268	-25.356356	141.776413	96.529579
761.901733	-54.329086	117.838814	56.047195
762.304199	-30.321898	161.579819	98.181458
762.706543	-80.830986	114.536354	123.777901
763.108826	-51.845108	101.324318	113.045242
763.511108	-28.666626	139.300507	97.355659
763.913208	-7.979581	104.627632	101.484810
764.315369	-17.080887	122.792152	117.998978
764.717529	-41.910255	126.094284	73.400406
765.119568	-17.908691	131.046829	100.658928
765.521545	-62.609550	170.654175	151.014084
765.923462	-57.641132	303.317413	242.537109
766.325317	-18.736103	386.397400	312.530792
766.727112	-35.288132	447.198914	441.609344
767.128845	-37.771542	405.301392	360.246460
767.530518	-29.494324	308.255859	298.538269
767.932251	21.797461	328.005890	256.542053
768.333862	5.256542	227.544647	245.008713
768.735413	-15.426123	198.693726	237.593307
769.136841	18.489565	212.708893	231.000870
769.538269	-22.873606	273.678162	283.719360
769.939636	-39.426937	337.056091	270.544128
770.341003	-40.254787	355.152252	272.191040
770.742249	-61.781384	249.791946	249.128036
771.143433	-51.844975	222.599792	212.044434
771.544617	-17.908422	152.503983	191.432983
771.945740	-22.873606	180.551987	153.489380
772.346802	-17.908422	121.966553	168.339615
772.747803	-76.689110	78.196724	150.188858
773.148682	-32.805099	104.627632	141.111328
773.549622	-35.288132	112.059189	103.962402
773.950439	2.774978	86.457909	79.183334
774.351196	-28.666761	127.745087	61.832069
774.751892	-17.908422	139.300644	91.573944
775.152588	-56.813034	115.361923	110.568153
775.553162	-1.361014	112.884789	98.181458
775.953735	-50.189228	84.805573	94.051949
776.354309	-48.533394	107.930634	52.741474
776.754639	-64.265785	106.279289	85.792213
777.155090	-25.356356	102.976204	87.444115
777.555420	-32.805099	68.282417	89.096107
777.955750	-42.738270	60.845310	63.484901
778.355896	-51.844975	112.059189	70.921555
778.756104	-3.015789	111.233582	94.877792
779.156189	-46.877468	100.498566	109.742531
779.556274	-59.297089	88.109795	117.998978
779.956299	-37.771408	101.324455	70.921555
780.356201	-81.659286	79.849243	80.009659
780.756165	-22.046135	83.979591	64.311172
781.156006	-25.356356	83.153595	101.484810
781.555786	-36.115788	80.675285	108.916893
781.955505	-31.977488	35.221859	96.529854
782.355225	-13.771269	78.196861	109.742531
782.754761	-53.501171	124.443039	102.310555
783.154358	-3.015789	104.627632	91.573944
783.553894	-36.943726	121.141075	116.347786
783.953369	16.835615	91.413834	94.877792
784.352783	-41.082516	79.849243	80.009384
784.752075	3.602087	85.631813	70.921555
785.151367	-48.533394	73.239716	87.444252
785.550598	-22.046135	102.150467	38.689476
785.949768	-58.469105	66.629723	118.824631
786.348877	-51.845108	91.413834	72.573997
786.747986	-44.393806	65.803352	50.262032
787.147034	-66.750290	52.580990	80.835823
787.545959	-60.125084	74.892227	37.862587
787.944885	-18.736103	84.805573	95.703758
788.343750	-21.218544	72.413567	86.618172
788.742493	-7.979581	70.761116	67.616379
789.141235	-39.426937	68.282417	64.311302
789.539917	-46.877468	82.327461	51.914917
789.938538	-25.356356	55.060341	78.357277
790.337158	-12.116327	75.718338	78.357277
790.735718	-8.806989	60.018997	80.009384
791.134094	-5.497565	62.498173	59.353001
791.532532	2.774978	54.233810	56.047195
791.930847	-70.063042	98.847023	80.835686
792.329224	-12.116327	50.927990	51.088478
792.727417	-10.461701	118.664322	72.573997
793.125610	-66.750290	63.324581	16.364536
793.523682	-57.641132	55.060341	59.353001
793.921753	-21.218544	51.754429	72.573860
794.319824	-40.254654	70.761116	97.355659
794.717773	-11.288874	55.886990	32.075382
795.115723	-60.125351	107.104973	56.873833
795.513550	-4.670340	93.891579	44.475765
795.911377	10.219357	48.448334	43.649223
796.309082	-33.632721	102.976204	73.400139
796.706787	-27.011536	49.274811	5.612450
797.104370	1.120454	43.488716	29.595078
797.501953	-41.910522	67.455940	65.137558
797.899536	-46.049660	51.754429	46.955719
798.296936	-29.494324	101.324455	67.616379
798.694397	-38.599236	16.203953	70.095375
799.091736	-42.738270	83.153595	85.792213
799.489014	-22.873606	41.835464	39.515812
799.886230	-8.806853	91.413834	57.700188
800.283447	-41.910522	131.872437	72.573997
800.680542	-26.184008	75.718475	38.689205
801.077637	-59.297089	62.498173	56.047195
801.474670	-31.977354	86.457779	40.342682
801.871643	-7.979581	29.434532	9.747953
802.268555	-53.501171	55.060341	67.616379
802.665405	-36.943726	46.795086	84.139992
803.062256	-0.533846	58.366066	57.700188
803.458923	-14.598758	79.022919	56.047195
803.855652	-45.221725	55.060341	98.181458
804.252258	-36.943726	58.366199	82.487862
804.648804	6.910815	52.580990	99.007378
805.045410	-38.599236	60.845310	13.056336
805.441833	-36.943726	43.488716	35.382523
805.838257	-16.253498	27.780617	7.266713
806.234619	-44.393940	79.849243	67.616379
806.630859	-9.634137	46.795219	17.191456
807.027100	-42.738270	74.892365	18.018364
807.423279	-48.533394	76.544571	40.342682
807.819458	-58.469105	36.875427	43.649223
808.215515	1.120589	49.274811	46.955719
808.611572	-22.873606	45.968578	23.807072
809.007507	-16.253498	57.539719	41.169403
809.403381	-79.174278	45.142059	57.700188
809.799194	-23.701088	79.849243	26.287619
810.195068	-4.670205	92.239716	41.995975
810.590759	-51.844975	36.048649	54.394291
810.986450	-39.426937	39.355297	44.475765
811.382080	-1.361014	26.953846	55.220814
811.777649	11.046362	74.065842	-11.760315
812.173157	-116.461952	93.065720	48.608829
812.568665	11.046362	31.088131	45.302559
812.964050	-37.771408	80.675285	94.877792
813.359375	-65.094124	37.702061	54.394291
813.754639	-67.578529	50.101269	43.649223
814.149841	24.277956	55.886719	42.822536
814.545105	-25.356356	42.662029	55.220814
814.940186	1.947722	50.927990	50.262032
815.335266	3.602087	83.979591	31.248535
815.730347	-22.873606	45.142059	3.958005
816.125244	-30.321898	26.127062	51.914917
816.520203	-12.116327	89.761772	10.575235
816.914978	-14.598622	98.846886	90.748329
817.309753	11.873356	190.448212	215.341751
817.704468	-14.598758	501.379120	485.945648
818.099182	20.970335	895.726563	794.652893
818.493774	35.853451	1326.804321	1175.154663
818.888367	59.823742	1868.282593	1570.681030
819.282898	33.373032	2189.853271	1882.936279
819.677307	35.026657	2383.823486	2090.452393
820.071716	8.564907	2095.116211	1850.716919
820.466003	11.873356	1690.889648	1577.956421
820.860291	13.527444	1270.014282	1270.171631
821.254517	22.624304	944.656982	992.897400
821.648743	13.527444	666.925476	766.052551
822.042786	-27.011536	482.503418	582.724121
822.436890	-50.189228	322.246094	355.312073
822.830872	-9.634272	234.137177	238.417206
823.224792	-14.598622	159.929672	182.361450
823.618774	1.947722	89.761772	128.730896
824.012512	-39.427074	55.886719	80.835686
824.406311	-59.297089	76.544571	69.269188
824.799988	5.256272	98.021103	52.741341
825.193665	-37.771408	96.369209	70.921555
825.587280	-2.188463	68.282417	79.183334
825.980835	3.602087	41.835464	35.382385
826.374329	-32.805099	76.544571	45.302559
826.767761	13.527444	45.968578	32.075382
827.161194	-25.356356	68.282417	58.526669
827.554443	-29.494595	45.142059	75.052650
827.947754	-65.922195	56.713360	56.047195
828.340942	8.565042	30.261271	61.832340
828.734131	-26.183872	40.182163	35.382385
829.127136	-64.265785	18.684820	70.095375
829.520264	-24.528580	64.150848	67.616379
829.913208	-33.632721	3.797390	38.689205
830.306152	26.758619	37.702061	36.209175
830.699097	-19.563526	26.953846	41.169403
831.091797	0.293310	58.366066	68.442863
831.484619	-12.116327	81.501450	55.220814
831.877319	-12.943658	26.127062	37.862450
832.270020	-51.017094	55.886719	22.980108
832.662537	-5.497430	51.754429	16.364536
833.055054	-18.736103	35.221859	31.248535
833.447510	6.910815	64.150848	27.114670
833.839966	-27.839073	62.498173	58.526669
834.232361	-96.572250	13.722850	43.649223
834.624634	-15.426123	37.702061	8.093894
835.016907	-8.806853	53.407406	17.191456
835.409058	-33.632721	40.182163	64.311302
835.801208	0.293310	44.315258	-3.487028
836.193298	-44.393940	20.338717	35.382523
836.585327	-46.877468	29.434532	76.704987
836.977295	-39.426937	50.101269	17.191456
837.369202	-32.805099	64.150848	32.902084
837.761047	-22.873606	32.741817	37.035954
838.152832	-42.738270	26.953846	-11.760315
838.544617	-16.253498	8.760328	39.516083
838.936218	-12.943658	54.233810	66.790161
839.327942	-55.157009	46.795219	23.807072
839.719421	-57.641132	-1.992871	1.476522
840.111023	-75.860878	26.953846	64.311172
840.502380	-20.391096	57.539719	31.248535
840.893860	11.046362	45.142059	27.114670
841.285217	-44.393940	11.241641	38.689205
841.676453	-42.738270	30.261271	55.220814
842.067749	-54.329086	31.087996	48.608829
842.458862	-33.632721	22.819544	-1.832510
842.849976	-45.221725	7.933291	19.672415
843.241028	-37.771408	17.857786	13.883303
843.632019	-25.356356	17.030876	18.845394
844.022949	-19.563526	5.451839	-4.314237
844.413879	-27.011536	-15.230621	15.537604
844.804749	-17.080887	3.797390	35.382523
845.195496	-26.183872	36.875427	61.005768
845.586182	19.316456	2.143165	63.484901
845.976807	-60.125351	12.895746	27.114399
846.367432	-47.705288	30.261271	-15.897461
846.757996	-16.253498	29.434532	21.326420
847.148499	9.392071	51.754429	12.229359
847.538879	-1.361284	55.886719	-29.965776
847.929260	-6.324802	37.702061	13.056336
848.319641	-30.321898	5.451839	24.633886
848.709839	-26.183872	29.434532	15.537604
849.100098	-7.979581	30.261271	18.845530
849.490234	-46.049660	31.914845	7.266848
849.880310	-62.609550	30.261271	39.516083
850.270325	-7.979581	19.511841	25.460825
850.660339	-51.845108	18.684820	53.567886
851.050171	-11.289009	20.338717	40.342682
851.440125	-7.152321	36.048649	7.266713
851.829895	-5.497565	39.355564	-22.517393
852.219604	-16.253498	35.221992	55.220814
852.609314	-24.528580	31.088131	12.229359
852.998901	-38.599236	28.607649	25.460825
853.388550	-54.329086	18.684820	-34.104206
853.778015	-55.157009	-12.748300	-1.832510
854.167480	-17.081022	50.927990	16.364536
854.556885	-27.011536	38.528687	13.883303
854.946228	-15.426123	19.511707	24.633886
855.335571	-8.806853	28.607782	23.807072
855.724731	-55.157146	17.031010	33.728775
856.113953	-12.943928	37.702061	45.302292
856.503052	-4.670205	1.315900	-1.005066
856.892151	-59.297356	-1.165694	67.616379
857.281067	-40.254654	5.451839	18.018497
857.670105	-47.705559	8.760328	5.612450
858.058960	30.892782	-11.920972	14.710392
858.447754	-18.735834	17.857920	34.555721
858.836609	-33.632721	-25.988470	16.364536
859.225281	-51.017094	4.624486	-2.659696
859.613892	-54.329086	31.914845	-4.314237
860.002502	-16.253498	8.760328	27.114399
860.391052	-63.437592	-0.338529	23.807072
860.779541	-87.458275	17.031010	8.920930
861.167969	-14.598758	51.754429	-1.005066
861.556335	-14.598622	88.109795	32.902084
861.944702	-4.670205	52.580990	23.807072
862.332947	-30.322170	4.624756	0.649383
862.721069	7.737866	17.857920	-53.972546
863.109253	-41.910522	-35.092701	-15.070089
863.497314	-16.253498	0.488624	6.439520
863.885376	-67.578392	50.927723	-9.278274
864.273315	-17.908422	2.970284	-10.932866
864.661255	-38.599236	17.031010	38.689476
865.049072	-21.218544	17.030876	18.845394
865.436890	-52.673000	11.241641	54.394291
865.824707	-51.017094	28.607649	-2.659696
866.212280	-41.082516	-17.713047	18.018497
866.599915	-26.183872	-4.474874	-13.415247
866.987488	10.219087	-3.647528	3.130901
867.375061	-35.288132	-7.784240	40.342682
867.762451	-17.081022	19.511841	4.785368
868.149841	-25.356356	45.142059	8.093760
868.537170	-56.813034	45.968578	15.537604
868.924438	-35.288132	36.048649	29.595078
869.311707	-99.886566	47.621716	33.728775
869.698853	-50.189228	5.451974	27.114399
870.085938	-15.426123	9.587624	18.018497
870.472961	-42.738270	68.282417	51.088478
870.859985	-12.116327	31.087996	-21.689928
871.246887	-45.221725	30.261271	17.191456
871.633789	-35.288132	18.684820	75.052650
872.020569	-29.494324	4.624756	31.248671
872.407349	-31.977354	2.970284	2.303650
872.794067	-50.189228	6.279046	13.883303
873.180725	-51.017094	-1.992871	23.807072
873.567322	-3.015789	20.338717	8.920930
873.953796	-52.673000	-35.920353	-12.587640
874.340332	-36.943726	-6.956713	-7.623323
874.726624	12.700474	39.355564	6.439655
875.113037	-68.406639	34.395191	-5.141457
875.499329	-15.426123	17.030876	55.220814
875.885559	-36.116058	50.101269	-9.278139
876.271729	-36.116058	34.395191	9.748223
876.657898	-43.566032	-16.058130	3.958005
877.044006	-49.361370	-3.647528	27.941439
877.429932	15.181486	3.797390	28.768196
877.815918	-12.116327	23.646374	41.995975
878.201782	10.219087	-1.992871	43.649223
878.587585	-60.953499	-9.438790	-15.070089
878.973389	-17.081022	-23.505695	13.883303
879.359070	-2.188463	21.992704	-6.796068
879.744751	-70.063042	-0.338529	0.649383
880.130310	-51.017094	-12.748300	41.169403
880.515930	-10.461567	35.221859	8.093894
880.901367	2.774978	-16.058130	-15.897461
881.286804	-8.806853	21.992704	-5.968824
881.672180	-22.046001	-15.230756	-9.278139
882.057434	-41.082516	-16.058130	-0.177768
882.442749	-5.497430	10.414638	16.364536
882.827942	-24.528580	2.143165	12.229359
883.213013	-3.015654	-11.920972	3.130901
883.598145	-67.578529	26.127062	14.710392
883.983154	-40.254654	24.473328	0.649383
884.368042	-37.771408	-31.781933	32.902355
884.753052	-14.598622	-8.611509	27.114399
885.137817	-60.125351	23.646509	31.248671
885.522644	-18.736103	9.587354	-32.448826
885.907349	-30.322170	2.970284	-11.760315
886.292053	-17.908422	-23.505695	-8.450861
886.676636	-31.977354	7.106107	37.035954
887.061157	-52.673000	-20.195580	-16.724979
887.445740	-60.953365	7.106107	-32.448826
887.830078	-34.460487	-4.474874	-8.450861
888.214539	-69.234901	-25.988470	18.018497
888.598816	-58.469105	6.279046	15.537334
888.983093	-51.844975	-6.129467	-7.623593
889.367249	-23.701088	1.315900	37.035954
889.751465	-3.842991	2.143165	-30.793356
890.135498	-49.361370	-12.748300	-15.897461
890.519531	-51.017094	14.549807	-15.897461
890.903503	-28.666761	-10.266217	-21.689928
891.287415	-22.046001	36.875294	-6.796068
891.671326	-47.705288	-3.647528	-15.897461
892.055054	-51.845108	-45.026264	-25.827774
892.438843	-10.461567	-26.816130	-18.379780
892.822510	-41.910255	22.819544	8.920930
893.206116	-10.461567	-25.160957	26.287619
893.589661	-17.080887	-11.920972	8.093760
893.973206	-46.049660	-25.160686	6.439520
894.356628	-83.315926	31.087996	-1.005066
894.739990	-36.116058	-26.815994	7.266713
895.123352	12.700338	21.992704	-4.314237
895.506592	-69.234901	-14.403259	15.537604
895.889832	-25.356356	8.760328	-25.000261
896.272949	-46.049522	29.434532	-1.832510
896.656067	-64.265785	9.587354	31.248535
897.039063	9.392071	20.338717	30.421812
897.422058	10.219087	2.970284	-20.862341
897.804993	-54.329086	-8.611509	19.672279
898.187866	-12.943928	-45.026127	-14.242595
898.570618	-6.324802	-33.437290	-41.554058
898.953369	-50.189228	28.607649	9.748223
899.336121	-19.563526	43.488716	45.302559
899.718689	5.256542	-16.885517	10.575235
900.101257	-42.738270	-3.647663	3.130901
900.483704	-16.253498	-21.850613	33.729042
900.866211	-24.528851	-34.264923	-16.724844
901.248596	-53.501171	-20.195580	-25.827774
901.630920	-78.345879	-26.815994	-6.796068
902.013184	-87.458275	28.607649	-14.242595
902.395386	-37.771408	-0.338529	-41.554058
902.777588	-75.032654	42.662163	15.537334
903.159668	-14.598622	37.702061	-7.623323
903.541687	-22.046135	-8.611509	-30.793356
903.923645	3.602087	12.068767	1.476522
904.305603	-49.361370	17.030876	3.130901
904.687500	-27.011536	-3.647663	3.130901
905.069275	-27.839073	13.722850	8.920930
905.451050	-53.501171	41.835464	18.845394
905.832642	-22.873606	58.366066	19.672415
906.214294	-32.804962	33.568508	3.130901
906.595825	-36.943726	-6.956713	12.229359
906.977417	-41.910522	7.933156	-10.933001
907.358826	-16.253498	42.662029	35.382523
907.740234	3.602087	24.473328	-7.623323
908.121582	-3.015789	-33.437290	-31.621220
908.502869	-22.873470	22.819544	24.633886
908.884033	-22.873606	1.315900	-2.659696
909.265198	-14.598758	18.684820	-7.623323
909.646301	-32.805099	-11.920837	-12.587640
910.027344	-29.494324	29.434532	-44.037731
910.408325	-20.390961	-3.647528	-19.207199
910.789246	-7.979581	17.857920	-32.448959
911.170105	-48.533394	19.511707	19.672415
911.550903	-5.497430	8.760328	-21.689928
911.931641	14.354539	-17.713047	-22.517393
912.312317	-10.461567	40.182163	10.575235
912.692932	-31.149755	10.414638	8.093894
913.073547	-45.221725	-53.305408	-1.832510
913.453979	-14.598622	-16.885517	-22.517393
913.834473	-71.719620	15.376751	8.920930
914.214783	-35.288132	2.143165	-21.689928
914.595154	1.120454	-1.993141	9.747953
914.975464	-10.461701	4.624756	-17.552374
915.355652	-6.324802	-5.302097	-6.796068
915.735840	-12.116327	9.587624	7.266713
916.115845	-14.598622	32.741547	-9.278139
916.495972	-41.082516	23.646374	27.114399
916.875854	-17.908422	2.143165	32.075382
917.255859	-39.426937	-20.195580	-34.931980
917.635620	-23.701088	-3.647663	8.093760
918.015503	-27.839073	3.797660	11.402370
918.395203	0.293310	-18.540457	25.460691
918.774902	-12.116327	13.722714	-48.177155
919.154480	-30.322170	-21.850613	-1.832510
919.534058	-24.528851	19.511707	-20.034899
919.913574	20.143333	-4.474874	-24.172491
920.292969	-10.461567	7.106107	3.958275
920.672363	-31.149755	2.143165	0.649383
921.051636	8.564907	8.760328	-9.278274
921.430969	2.774978	2.143165	3.130766
921.810181	-31.977354	-11.920972	-26.655298
922.189331	-8.806853	-13.575639	3.958005
922.568420	-77.517624	21.165581	13.056336
922.947388	-14.598622	25.300268	-5.968824
923.326416	-48.533394	58.366066	24.633886
923.705261	22.624304	-16.058130	-7.623323
924.084106	13.527444	17.031010	-15.069955
924.462891	-55.984947	28.607649	-13.415247
924.841675	-50.189228	35.221992	-2.659696
925.220337	-24.528580	-23.505695	-10.105564
925.598938	-26.184008	21.992704	-47.349060
925.977478	-13.771269	31.087996	32.075382
926.355957	-37.771542	34.395191	13.056336
926.734436	-75.032516	-1.992871	-48.177155
927.112732	-43.566032	12.895746	24.633886
927.491089	-57.640995	-42.542816	-36.587292
927.869324	2.774978	8.760328	13.883437
928.247559	14.354403	-43.370575	2.303650
928.625671	-42.738270	-20.195580	-73.847923
929.003723	-27.839073	21.165581	6.439655
929.381775	-52.673000	-35.092701	19.672279
929.759705	-18.735834	-49.165756	18.845394
930.137634	-66.750290	21.165852	-15.069955
930.515381	-40.254787	2.970284	60.179462
930.893250	-3.015789	-49.993744	6.439520
931.270935	-13.771269	-30.954336	1.476522
931.648560	-45.221725	-25.160686	-32.448959
932.026123	-67.578529	-4.474874	-5.968824
932.403687	-10.461567	-21.023159	2.303650
932.781250	-49.361237	-30.954336	12.229224
933.158630	-41.910255	-7.784240	-17.552374
933.536011	-51.017094	13.722714	-15.897461
933.913208	-46.877468	1.315900	-1.832510
934.290527	-7.152321	-8.611509	-3.486893
934.667664	-7.979581	3.797390	-6.796068
935.044800	20.143333	-8.611509	-20.034899
935.421814	-22.873606	-6.956713	-34.104206
935.798889	-47.705288	-10.266217	-43.209831
936.175842	-20.391096	-29.298912	19.672415
936.552673	-6.324802	36.875427	-65.565857
936.929504	-49.361370	-37.575966	-29.965776
937.306274	-10.461567	-5.302097	-32.448826
937.683044	1.120454	17.857920	4.785368
938.059570	-74.204315	-21.023024	-58.112808
938.436218	-25.356356	-52.477509	-40.726326
938.812744	-20.390961	-11.920972	-43.209831
939.189148	-46.877468	25.300268	-24.172491
939.565613	-31.977354	-33.437157	-15.069955
939.941956	-33.632721	-6.956983	8.920930
940.318237	-16.253498	3.797390	-7.623593
940.694458	-42.738270	-35.920353	-10.105564
941.070557	-37.771408	-31.781933	-20.034899
941.446655	-28.666761	-19.368147	-20.862341
941.822693	-55.157009	5.451839	14.710392
942.198669	-10.461567	-28.471216	2.303785
942.574646	-37.771408	-22.678080	-9.278139
942.950562	-33.632854	-23.505695	21.326149
943.326294	-46.049522	-23.505695	-32.448959
943.702026	-20.391096	-53.305408	-29.138206
944.077698	-55.984947	-12.748300	-27.482965
944.453369	-31.977354	-22.678080	-45.693306
944.828918	-39.426937	-45.854057	-34.931843
945.204468	-36.115788	13.722850	32.902084
945.579834	-52.673267	-40.887062	-20.862474
945.955261	-39.426937	-15.230756	-39.898468
946.330627	40.813572	-30.126482	-13.415247
946.705811	-12.116327	33.568508	-53.144638
947.081055	-12.943658	-11.920972	-37.415237
947.456177	-33.632721	-32.609539	-47.349060
947.831238	-46.049660	29.434532	-30.793356
948.206238	19.316456	-24.333183	-63.081268
948.581238	-29.494595	-16.058130	-34.104206
948.956116	-33.632721	-54.133320	-30.793356
949.330933	-32.805099	-68.211098	-43.209831
949.705811	8.565042	-36.748020	-58.940788
950.080505	4.429185	-25.160686	-49.004993
950.455139	-1.361284	-22.678080	-33.276577
950.829773	-12.943658	-23.505695	-22.517393
951.204346	-36.116058	30.261271	-26.655298
951.578735	19.316456	-20.195580	-19.207199
951.953186	1.947722	-2.820329	-10.932866
952.327515	-22.873606	5.451974	-49.832848
952.701843	-61.781517	-2.820329	-24.172762
953.076172	-24.528580	4.624756	-30.793356
953.450195	-32.804962	-16.885517	7.266713
953.824341	-17.080887	-24.333183	-7.623323
954.198486	-51.845108	-52.477375	-32.448959
954.572449	-27.839073	-16.885517	-10.105564
954.946350	-52.673000	-23.505695	-13.415247
955.320251	3.602087	-10.266217	-4.314237
955.694092	-54.329086	-8.611509	-1.005066
956.067871	-28.666626	6.279046	-12.587640
956.441589	-59.297089	6.279046	-17.552374
956.815125	-7.152051	-61.585999	-13.415247
957.188721	-37.771408	-78.978561	-62.253094
957.562256	-51.017094	-59.929840	1.476522
957.935730	-46.049660	2.970284	-39.898468
958.309021	-96.572250	-5.302097	-32.448826
958.682373	-22.046001	-59.929569	-27.482965
959.055664	-29.494324	-2.820329	6.439655
959.428955	-63.437592	-16.885517	29.595078
959.802063	-42.738270	19.511841	5.612450
960.175110	-43.566032	-35.920353	-34.931843
960.548157	-51.017094	-5.302097	-24.172762
960.921143	-55.157009	-45.026264	-11.760315
961.294128	-3.015654	-96.376480	-30.793356
961.666809	-14.598622	-18.540457	-7.623323
962.039612	-31.149755	12.068632	-7.623323
962.412415	-36.943459	-13.575909	-26.655298
962.785095	-21.218544	-40.886925	-44.865513
963.157715	-36.943726	-30.126482	-70.534821
963.530151	-60.953499	26.953846	-18.379780
963.902649	-73.376114	-21.850613	-63.081402
964.275146	-27.839073	-16.885517	-41.554058
964.647522	-35.288132	-30.126482	-37.415237
965.019714	-34.460487	-19.367876	-1.005066
965.392029	-65.922195	-4.474874	-13.415247
965.764160	-17.081022	-35.092701	-5.141457
966.136292	-51.845108	10.414638	-50.660847
966.508423	-35.288132	-14.402989	-50.660709
966.880371	-27.011536	-46.681999	-43.209831
967.252319	-59.297356	31.914845	6.439520
967.624207	-7.152321	-28.471216	14.710392
967.996094	-31.977354	-18.540728	-15.897461
968.367737	-21.218544	-35.920353	-63.909451
968.739441	-28.666626	-19.368147	-6.796068
969.111084	-21.218544	17.857920	-15.897461
969.482666	-15.426123	-25.988470	-13.415247
969.854248	-42.738270	-21.023024	-48.177155
970.225586	-15.426123	20.338717	3.958275
970.596985	-80.830986	-26.816130	13.056336
970.968323	-39.426937	-38.403793	5.612450
971.339661	-54.329086	-9.438790	-43.209831
971.710754	-95.743599	-21.023024	-67.222046
972.081909	-60.125351	-56.617527	-29.138071
972.453064	-31.149755	-39.231491	-10.932866
972.824097	-33.632721	-11.920972	-33.276577
973.194946	-14.598622	-41.715069	10.575235
973.565918	-12.943658	-46.681999	-44.865513
973.936768	-35.288132	-46.681999	-32.448826
974.307556	-4.670205	-27.643667	-17.552238
974.678284	-16.253498	15.376751	-67.222046
975.048828	25.104900	-35.092564	-49.004993
975.419495	-20.390961	2.143165	-39.070759
975.790039	3.602087	-25.988470	-19.207470
976.160522	-16.253498	-9.438790	-27.482830
976.530884	-27.839073	-4.474874	-51.488720
976.901245	-27.839073	5.451974	-32.448826
977.271606	-17.908422	-64.070114	-20.862341
977.641846	-50.189228	-37.575966	-12.587640
978.012024	-67.578529	-30.126482	-57.284706
978.382019	-92.429382	21.165852	-39.898468
978.752136	-59.297089	-24.333183	-40.726326
979.122131	-37.771542	-28.471216	-40.726326
979.492065	8.564907	-52.477509	-1.005066
979.861877	-27.011536	-11.093522	-25.827774
980.231689	36.680099	-27.643667	-15.897461
980.601440	-26.183872	1.315900	-35.759628
980.971191	-45.221863	-3.647663	-29.138206
981.340820	-11.289009	-15.230621	-23.345005
981.710266	-24.528851	-41.715069	-3.486893
982.079773	-29.494324	-40.059204	-67.222046
982.449280	-31.149755	-59.101574	-66.393944
982.818604	-81.659286	-21.850613	-44.865513
983.187866	-51.845108	-1.165694	-49.004993
983.557129	-17.908422	2.143165	-59.769047
983.926331	-19.563526	-35.092701	-55.628670
984.295471	-32.804962	-62.414028	-13.414976
984.664612	-30.321898	9.587354	-31.621220
985.033569	-29.494324	-27.643667	-38.242928
985.402527	-11.289009	-44.198345	4.785368
985.771362	-3.842991	-59.929569	-44.037598
986.140259	-27.839073	-3.647663	-38.242928
986.508911	-29.494324	-2.820329	-106.988396
986.877625	-7.152051	-14.403259	-25.000261
987.246277	-49.361370	5.451839	6.439520
987.614929	-27.011536	-8.611509	-25.827774
987.983459	-37.771542	-32.609539	-8.450861
988.351807	-14.598758	8.760328	-70.534821
988.720215	-3.842991	-17.713047	-25.000261
989.088623	6.083616	-4.474874	-64.737518
989.456909	-4.670205	-40.886925	-85.444923
989.825012	-10.461701	25.300268	-6.796068
990.193115	-38.599236	-32.609676	-64.737518
990.561279	-24.528580	-13.575909	-52.316738
990.929321	-110.660057	-35.920353	-31.621220
991.297302	-59.297356	-41.714798	-28.310648
991.665100	-53.501171	-128.700745	-20.862341
992.033020	-13.771269	-26.816130	13.056336
992.400818	-57.641132	0.488759	-29.138206
992.768494	-27.839073	-27.643667	-4.314237
993.136047	-28.666626	1.316035	-60.597050
993.503723	-66.750290	3.797390	-26.655298
993.871277	25.931833	-9.438925	-53.144638
994.238770	-35.288132	-14.403259	-54.800735
994.606140	-36.116058	-16.885517	-20.034899
994.973450	-41.910522	-21.023024	-48.177155
995.340759	-55.157146	-25.160686	-36.587292
995.708008	-58.469105	-16.885517	-25.827774
996.075195	-3.842991	-16.058130	-55.628670
996.442200	-31.149755	10.414638	-20.034899
996.809265	-36.943726	-42.542816	-13.415247
997.176270	-70.063042	-17.713047	-48.177155
997.543152	-64.265785	-40.887062	-20.034899
997.910095	-35.288132	-27.643667	-76.332703
998.276733	-56.813034	-55.789581	-23.345005
998.643494	-23.701088	-35.092564	-33.276577
999.010193	-34.460487	-16.058130	1.476522
999.376831	-31.977354	-46.681999	-19.207199
999.743286	-55.157009	21.165581	-45.693439
1000.109802	-27.011536	-20.195580	-7.623323
1000.476257	-51.844975	-41.714798	-37.415237
1000.842651	-26.184008	-58.273594	-15.069955
1001.208923	-56.813034	-13.575909	-42.381802
1001.575134	-67.578392	-36.748020	-13.415247
1001.941284	-41.082516	-40.059204	-44.865513
1002.307434	-21.218544	-54.961514	-42.381802
1002.673523	-41.910255	-13.575909	-39.898605
1003.039429	-13.771269	-17.713047	-29.138206
1003.405334	-24.528580	-1.993141	-26.655298
1003.771179	-23.701088	5.451974	-11.760315
1004.137024	-18.735834	-59.101574	-46.521244
1004.502808	-31.149755	-35.092701	37.862587
1004.868408	-18.735834	-80.635399	-62.253231
1005.234009	-52.673000	-36.748020	-69.706543
1005.599609	-46.877468	-4.474874	-23.345005
1005.965149	-19.563526	-19.368147	-10.105564
1006.330444	-84.973022	-11.093522	12.229359
1006.695862	-3.842991	-41.714798	-44.865513
1007.061218	16.835615	-6.129332	-43.209831
1007.426453	-46.049660	-8.611509	-34.931980
1007.791626	-38.599098	7.933156	-37.415237
1008.156677	-52.673000	-27.643667	-71.363243
1008.521729	-43.566170	-41.714798	-11.760315
1008.886780	-12.943928	-57.445488	-13.415247
1009.251709	-56.813034	-8.611509	-33.276577
1009.616577	-43.566032	-13.575639	-32.448826
1009.981384	-39.427074	-16.058130	-38.242928
1010.346130	-44.393940	-62.414028	-34.931843
1010.710754	-38.599098	-44.198345	23.807072
1011.075439	-27.011536	-35.920353	10.575235
1011.439941	-35.288132	-50.821606	-18.379780
1011.804443	-19.563526	47.621716	-15.897461
1012.168884	-51.017094	14.549807	-6.796068
1012.533325	-41.082516	-27.643667	5.612450
1012.897522	-19.563526	-6.129467	-13.415247
1013.261780	-64.265785	-31.781933	-17.552374
1013.626038	-26.183872	-24.333183	-98.701324
1013.990112	-10.461701	-10.266217	-47.349060
1014.354187	-48.533394	-35.920353	18.018497
1014.718140	-36.115788	-35.920353	-26.655298
1015.082153	-13.771269	-23.505695	-31.621220
1015.446045	-41.910522	1.315900	-48.177155
1015.809937	14.354539	12.068767	-12.587640
1016.173523	17.662529	-0.338529	-39.898468
1016.537170	-32.805099	-53.305408	-47.349331
1016.900879	-46.049522	-29.298775	-29.138206
1017.264404	-45.221725	-34.264923	-45.693306
1017.627991	-55.985081	-35.092701	-15.069955
1017.991333	6.910815	-11.920972	-10.105564
1018.354675	-53.501171	-35.092564	-49.832848
1018.718018	-3.015789	-31.781933	-26.655298
1019.081299	-39.426937	-28.471216	-24.172491
1019.444397	-38.599236	-39.231491	-28.310513
1019.807495	-64.265785	-42.542816	-57.284706
1020.170593	-66.750290	24.473328	-34.104206
1020.533691	-74.204315	-20.195580	-61.425068
1020.896606	-18.736103	27.780888	-44.865513
1021.259460	-60.125351	-36.748291	-33.276443
1021.622253	-19.563526	10.414638	13.883303
1021.985046	21.797190	20.338717	-58.940788
1022.347778	2.774978	-5.302097	-77.160934
1022.710327	-12.116327	-14.403259	-8.450861
1023.072876	-60.953365	-16.058130	-61.425068
1023.435364	-23.701088	-52.477375	-12.587640
1023.797852	-86.629761	-31.781933	-47.349060
1024.160278	-35.288132	-83.948944	-23.345005
1024.522461	-9.634272	7.106107	-37.415237
1024.884766	-70.063042	-35.920353	-10.105564
1025.246948	-51.845108	-38.403656	-61.425068
1025.609131	-11.289009	-33.437290	-7.623323
1025.971069	-33.632721	-44.198345	-44.865513
1026.333130	-7.152051	-46.681999	-15.897461
1026.694946	-56.813034	-16.885517	-35.759628
1027.056885	-51.017231	-33.437290	-58.112808
1027.418823	-22.046001	-24.333183	-33.276577
1027.780396	-42.738270	-1.165694	-37.415237
1028.142090	-31.149755	-4.474874	-70.534821
1028.503784	-28.666761	-53.305408	-45.693306
1028.865479	0.293310	-45.854191	-34.931980
1029.226807	-80.002556	-70.695641	-19.207470
1029.588135	-63.437592	-25.160957	-21.689928
1029.949707	-34.460354	-17.713047	-20.034899
1030.310913	27.585394	-49.993744	-30.793356
1030.672241	-50.189228	-57.445488	-21.689928
1031.033325	-43.566032	-40.059204	-1.832510
1031.394531	-27.011536	-33.437157	-30.793356
1031.755493	-36.943726	-40.059204	-23.345005
1032.116577	17.662664	-41.714798	-38.242928
1032.477417	-72.547928	-58.273460	-21.689928
1032.838257	-27.011536	-25.988201	-39.070759
1033.199097	-17.908422	-52.477375	-33.276577
1033.559937	-32.805099	-36.748020	-34.104206
1033.920654	-12.116327	8.760328	-32.448959
1034.281128	-30.321898	-37.575966	-62.253231
1034.641724	6.910815	-8.611509	-10.105564
1035.002197	-65.094124	-34.264923	-34.104206
1035.362671	-31.149755	-25.160957	-24.172491
1035.722900	-34.460487	-10.266217	-64.737518
1036.083252	-16.253498	-28.471216	-40.726326
1036.443481	-19.563526	-18.540457	-35.759628
1036.803711	-31.977488	21.165581	16.364536
1037.163940	-43.566032	-4.474874	-69.706673
1037.523804	-41.910522	-30.954336	-15.897461
1037.883789	-52.673000	-23.505695	0.649383
1038.243774	-30.322170	-20.195580	-49.004993
1038.603638	-0.533846	-37.575966	2.303785
1038.963257	-42.738270	-30.126482	-5.968689
1039.323120	-4.670205	-63.242065	-7.623593
1039.682861	-30.322170	-51.649483	-32.448959
>>>>>End Processed Spectral Data<<<<<
