Jaz Data File
++++++++++++++++++++++++++++++++++++
Date: Wed Dec 03 21:42:19 2014
User: jaz
Dark Spectrum Present: Yes
Reference Spectrum Present: Yes
Processed Spectrum Present: No
Spectrometers: JAZA2310
Integration Time (usec): 36000 (JAZA2310)
Spectra Averaged: 1 (JAZA2310)
Boxcar Smoothing: 0 (JAZA2310)
Correct for Electrical Dark: Yes (JAZA2310)
Strobe/Lamp Enabled: No (JAZA2310)
Correct for Detector Non-linearity: Yes (JAZA2310)
Correct for Stray Light: No (JAZA2310)
Number of Pixels in Processed Spectrum: 2048
>>>>>Begin Processed Spectral Data<<<<<
W	D	R	S
188.301102	0.000000	0.000000	0.000000
188.764923	0.000000	0.000000	0.000000
189.228699	-50.851192	-7.558390	-24.776911
189.692459	-18.570162	-39.833500	-22.294186
190.156158	11.212086	-62.188099	64.534180
190.619812	-11.123223	-57.219715	-32.225582
191.083435	-1.195390	-15.005013	-79.422577
191.547043	-3.677091	81.726685	-44.642090
192.010590	6.249354	4.850288	-37.191841
192.474091	28.578102	-0.112843	27.337551
192.937561	110.378319	17.256495	-32.225582
193.401001	38.499279	37.100838	-4.918317
193.864410	-58.303181	22.218170	57.096741
194.327759	13.693295	17.256495	42.219074
194.791077	78.167336	37.100838	-29.742542
195.254349	40.979210	42.060989	-19.811567
195.717575	-3.677091	22.218170	37.258934
196.180786	-1.195390	7.331765	49.658371
196.643951	-38.433235	-12.522700	22.376307
197.107071	16.174267	59.417999	-34.708591
197.570145	-8.641074	-67.156906	64.534180
198.033203	-58.303181	-32.383865	-14.846777
198.496216	13.693295	-29.900818	-4.918317
198.959167	-1.195390	-24.935040	24.857048
199.422089	-28.500927	22.218170	27.337551
199.884979	8.730772	22.218170	-64.514153
200.347855	-26.018044	12.294271	9.971172
200.810654	-65.756126	-0.112843	-22.294186
201.273422	-55.819035	-19.969816	-27.259605
201.736160	-6.159030	4.850288	2.526897
202.198853	-40.916641	22.218170	-49.609539
202.661514	-8.641074	-17.487295	-59.545567
203.124130	3.767967	-54.735619	-47.125763
203.586700	3.767967	-49.767868	-22.294186
204.049240	-55.819035	-92.007721	-59.545567
204.511734	-6.159030	-89.522133	-101.792526
204.974197	-58.303181	-84.551277	-47.125763
205.436615	18.655268	-82.066147	-74.452721
205.899002	-73.210014	-94.493279	-54.577271
206.361343	-30.983778	-24.935040	-62.029736
206.823654	-23.535265	37.100838	-54.577271
207.285919	-90.606194	-7.558390	19.895460
207.748123	-26.018044	-34.866882	0.045218
208.210327	-110.493988	-141.741119	-39.675198
208.672485	-18.570162	-34.866882	-42.158657
209.134583	8.730772	-72.126274	-74.452721
209.596649	-33.466869	-39.833500	-49.609539
210.058670	-40.916641	-5.076527	-89.363693
210.520676	-11.123223	-52.251621	5.008471
210.982635	-55.819035	-44.800404	-19.811567
211.444534	-70.725372	2.368707	-44.642090
211.906403	-65.756126	-32.383865	12.452435
212.368240	-58.303181	-17.487295	-7.400309
212.830048	-16.087700	-72.126274	-17.329052
213.291779	-40.916641	-32.383865	-24.776911
213.753494	-115.466934	-49.767868	-91.849274
214.215179	6.249354	-59.703789	2.526897
214.676819	-48.367363	-87.036652	-91.849274
215.138412	-18.570162	-0.112843	-19.811567
215.599960	-48.367363	-12.522700	17.414511
216.061493	-35.950069	14.775435	-37.191841
216.522949	-53.335133	32.140408	-34.708591
216.984406	-88.120804	-89.522133	-86.878220
217.445801	-63.271660	-34.866882	-39.675198
217.907166	-75.694908	-89.522133	-19.811567
218.368484	-45.883778	-74.611115	-47.125763
218.829773	-65.756126	-57.219715	-24.776911
219.291031	-85.635391	-104.436981	22.376307
219.752228	-8.641074	-2.594633	22.376307
220.213379	-40.916641	-126.816483	0.045218
220.674500	6.249354	-77.095932	-74.452721
221.135574	-55.819035	-109.409546	-32.225582
221.596634	-11.123223	-22.452444	-34.708591
222.057648	70.731590	-52.251621	-24.776911
222.518600	6.249354	-79.580978	-14.846777
222.979553	31.058451	-24.935040	2.526897
223.440430	3.767967	-64.672516	-14.846777
223.901276	-55.819035	-39.833500	19.895460
224.362076	23.616825	-62.188099	-144.070374
224.822845	-33.466869	-52.251621	-44.642090
225.283569	16.174267	-57.219715	-22.294186
225.744278	-167.709503	-79.580978	2.526897
226.204910	-48.367363	-44.800404	-19.811567
226.665512	-75.694908	-89.522133	-66.998665
227.126114	16.174267	-42.316833	19.895460
227.586639	-3.677091	-17.487295	-17.329052
228.047119	-16.087700	-92.007721	-24.776911
228.507568	-40.916641	-19.969816	-34.708591
228.967972	26.097515	-99.464981	-37.191841
229.428345	-18.570162	-84.551277	-42.158657
229.888687	8.730772	-139.253387	-84.392990
230.348984	3.767967	17.256495	0.045218
230.809219	-85.635391	-17.487295	-69.483154
231.269440	-50.851192	-17.487295	-34.708591
231.729614	-23.535265	39.580967	-39.675198
232.189758	-70.725372	-5.076527	-2.436430
232.649841	-58.303181	-42.316833	-62.029736
233.109894	-95.577576	27.179428	-79.422577
233.569901	-70.725372	-2.594633	-109.251053
234.029892	-13.605341	-19.969816	-47.125763
234.489822	-40.916641	4.850288	-4.918317
234.949707	21.136166	-17.487295	0.045218
235.409561	-38.433235	-89.522133	-9.882271
235.869385	-16.087700	-59.703789	-27.259605
236.329163	-28.500927	-49.767868	-62.029736
236.788895	-90.606194	-44.800404	-52.093285
237.248581	-23.535265	42.060989	-17.329052
237.708237	-13.605341	-37.350140	-37.191841
238.167847	63.294918	-47.284084	-9.882271
238.627441	21.136166	-12.522700	71.970695
239.086960	33.538830	-57.219715	-27.259605
239.546463	-6.159030	-101.950867	-57.061367
240.005920	-30.983778	-101.950867	-91.849274
240.465332	-13.605341	-32.383865	9.971172
240.924698	45.939041	-94.493279	-59.545567
241.384033	36.019108	24.698919	-39.675198
241.843338	-38.433235	-101.950867	-109.251053
242.302597	-65.756126	-67.156906	-47.125763
242.761810	-21.052593	-77.095932	-49.609539
243.220993	6.249354	-79.580978	-66.998665
243.680115	-8.641074	-15.005013	-114.223892
244.139221	-137.850861	-17.487295	-52.093285
244.598282	-70.725372	-39.833500	-9.882271
245.057297	58.336536	-44.800404	42.219074
245.516266	-45.883778	-44.800404	2.526897
245.975189	-135.363297	-82.066147	49.658371
246.434082	-50.851192	-19.969816	-27.259605
246.892944	-3.677091	-24.935040	34.778709
247.351761	-33.466869	-77.095932	-49.609539
247.810516	-78.179901	2.368707	-19.811567
248.269272	-3.677091	-42.316833	-42.158657
248.727951	-45.883778	-47.284084	7.489941
249.186600	-55.819035	-32.383865	-86.878220
249.645218	-70.725372	-7.558390	-19.811567
250.103790	-93.091835	-19.969816	-9.882271
250.562317	-28.500927	-10.040493	-24.776911
251.020813	-38.433235	-77.095932	-54.577271
251.479279	-28.500927	-52.251621	-71.967880
251.937668	45.939041	-59.703789	-69.483154
252.396057	-1.195390	-34.866882	-49.609539
252.854385	-83.150078	-62.188099	-2.436430
253.312683	-63.271660	37.100838	-49.609539
253.770920	-48.367363	-34.866882	-144.070374
254.229126	-28.500927	-49.767868	-19.811567
254.687302	-21.052593	-37.350140	37.258934
255.145432	-18.570162	-106.923210	-66.998665
255.603500	-33.466869	32.140408	-39.675198
256.061584	6.249354	-62.188099	-27.259605
256.519592	-53.335133	42.060989	-57.061367
256.977570	-45.883778	-54.735619	-37.191841
257.435455	28.578102	-82.066147	-19.811567
257.893372	-60.787434	-15.005013	-49.609539
258.351196	-53.335133	-89.522133	-49.609539
258.808990	-48.367363	-10.040493	-37.191841
259.266754	-70.725372	-111.895851	-64.514153
259.724487	-55.819035	-101.950867	-12.364470
260.182190	-43.400158	-131.790985	-89.363693
260.639832	-28.500927	-74.611115	-24.776911
261.097443	-28.500927	-59.703789	-14.846777
261.554993	-75.694908	-37.350140	-104.278503
262.012512	-40.916641	2.368707	-151.534378
262.469971	-13.605341	-54.735619	-69.483154
262.927429	-6.159030	-12.522700	-52.093285
263.384827	-11.123223	-39.833500	-37.191841
263.842194	-11.123223	-42.316833	-14.846777
264.299530	-85.635391	-0.112843	-62.029736
264.756805	-60.787434	-52.251621	17.414511
265.214050	-75.694908	-39.833500	67.013168
265.671234	-58.303181	-24.935040	-49.609539
266.128387	-63.271660	-22.452444	17.414511
266.585510	-23.535265	2.368707	-24.776911
267.042572	-8.641074	24.698919	-54.577271
267.499573	-8.641074	-10.040493	-17.329052
267.956604	21.136166	-37.350140	19.895460
268.413574	6.249354	-54.735619	-66.998665
268.870483	-48.367363	7.331765	-146.558182
269.327362	-63.271660	-62.188099	-62.029736
269.784180	-75.694908	-7.558390	-66.998665
270.240936	-75.694908	-72.126274	-7.400309
270.697693	-40.916641	-67.156906	-47.125763
271.154419	-70.725372	-42.316833	-69.483154
271.611053	-33.466869	-52.251621	-29.742542
272.067688	-147.802048	-32.383865	-57.061367
272.524292	-58.303181	9.813137	-7.400309
272.980835	-45.883778	-77.095932	7.489941
273.437347	-78.179901	-49.767868	-9.882271
273.893799	3.767967	-32.383865	-42.158657
274.350250	6.249354	19.737318	-4.918317
274.806610	-40.916641	4.850288	-4.918317
275.262939	-11.123223	-94.493279	-39.675198
275.719238	-45.883778	-37.350140	7.489941
276.175507	-53.335133	-42.316833	47.178665
276.631714	-33.466869	-62.188099	-104.278503
277.087891	-33.466869	-2.594633	-69.483154
277.544067	-45.883778	-54.735619	-27.259605
278.000122	-100.549232	-84.551277	-71.967880
278.456177	-26.018044	-119.355682	-106.764725
278.912201	8.730772	-12.522700	-44.642090
279.368164	-70.725372	-99.464981	32.298519
279.824097	-120.440453	-67.156906	-22.294186
280.279968	-78.179901	-92.007721	22.376307
280.735840	-55.819035	-22.452444	37.258934
281.191620	-11.123223	12.294271	-24.776911
281.647400	-28.500927	-52.251621	-9.882271
282.103149	-65.756126	-2.594633	0.045218
282.558838	-83.150078	-54.735619	-66.998665
283.014465	-3.677091	29.659971	-12.364470
283.470062	6.249354	-62.188099	-32.225582
283.925629	-18.570162	-47.284084	-27.259605
284.381134	-68.240692	-24.935040	-29.742542
284.836639	-53.335133	-111.895851	5.008471
285.292053	-11.123223	17.256495	-54.577271
285.747467	23.616825	-47.284084	-62.029736
286.202820	-63.271660	27.179428	-49.609539
286.658142	-50.851192	-0.112843	-14.846777
287.113434	-78.179901	-17.487295	-9.882271
287.568634	-88.120804	24.698919	-39.675198
288.023804	-78.179901	-5.076527	-66.998665
288.478973	-6.159030	-22.452444	-99.306519
288.934113	-85.635391	-64.672516	-96.820618
289.389130	-83.150078	-69.641533	-32.225582
289.844208	-55.819035	-27.417875	-42.158657
290.299164	-38.433235	-44.800404	2.526897
290.754089	-122.927231	-79.580978	-4.918317
291.208984	-28.500927	-19.969816	-27.259605
291.663879	-1.195390	-54.735619	-71.967880
292.118683	53.377872	-87.036652	-39.675198
292.573456	6.249354	19.737318	-64.514153
293.028198	-58.303181	-57.219715	-111.737350
293.482849	33.538830	-0.112843	-34.708591
293.937561	8.730772	19.737318	-109.251053
294.392151	43.459179	-89.522133	-7.400309
294.846741	-40.916641	-24.935040	-7.400309
295.301239	28.578102	-49.767868	-49.609539
295.755737	-33.466869	-79.580978	-96.820618
296.210175	-48.367363	-32.383865	14.933591
296.664581	-18.570162	-87.036652	34.778709
297.118958	-117.953644	-49.767868	-47.125763
297.573242	-45.883778	-15.005013	9.971172
298.027557	1.286340	-77.095932	-74.452721
298.481812	21.136166	-24.935040	0.045218
298.935974	38.499279	-104.436981	-34.708591
299.390137	-78.179901	-44.800404	-49.609539
299.844238	-105.521469	9.813137	-7.400309
300.298340	-35.950069	-10.040493	-34.708591
300.752350	-78.179901	-15.005013	-81.907730
301.206360	-8.641074	-24.935040	-89.363693
301.660278	-35.950069	-96.979080	-86.878220
302.114197	-6.159030	-19.969816	-47.125763
302.568054	-35.950069	-96.979080	-42.158657
303.021881	-23.535265	-74.611115	-64.514153
303.475677	3.767967	-2.594633	-17.329052
303.929413	-13.605341	-44.800404	47.178665
304.383118	-1.195390	-52.251621	9.971172
304.836761	-28.500927	-99.464981	-71.967880
305.290375	-28.500927	-92.007721	-12.364470
305.743958	-43.400158	-19.969816	7.489941
306.197510	-33.466869	22.218170	22.376307
306.650970	-26.018044	12.294271	-74.452721
307.104431	-30.983778	-22.452444	-24.776911
307.557800	26.097515	-101.950867	-49.609539
308.011169	-55.819035	-84.551277	24.857048
308.464508	3.767967	-22.452444	-42.158657
308.917755	-55.819035	-77.095932	-12.364470
309.371063	-70.725372	-34.866882	-54.577271
309.824219	-3.677091	-84.551277	-66.998665
310.277374	-65.756126	-99.464981	-54.577271
310.730499	13.693295	24.698919	-81.907730
311.183563	-3.677091	-52.251621	-69.483154
311.636597	11.212086	-32.383865	-19.811567
312.089569	-3.677091	-57.219715	-79.422577
312.542511	-1.195390	-12.522700	9.971172
312.995422	-21.052593	-52.251621	-22.294186
313.448273	-40.916641	-69.641533	-106.764725
313.901093	28.578102	-54.735619	-59.545567
314.353882	33.538830	-34.866882	-14.846777
314.806580	-80.664864	19.737318	-37.191841
315.259308	-70.725372	17.256495	17.414511
315.711975	11.212086	-2.594633	-29.742542
316.164581	-70.725372	-77.095932	-9.882271
316.617126	36.019108	-24.935040	-59.545567
317.069672	3.767967	-44.800404	-64.514153
317.522156	50.898319	-62.188099	-47.125763
317.974579	-6.159030	-32.383865	7.489941
318.427002	1.286340	24.698919	9.971172
318.879333	-30.983778	-57.219715	17.414511
319.331665	3.767967	-57.219715	7.489941
319.783936	-45.883778	-5.076527	12.452435
320.236176	-68.240692	-7.558390	-19.811567
320.688354	18.655268	-29.900818	-44.642090
321.140503	-68.240692	-37.350140	-32.225582
321.592651	-28.500927	-0.112843	-22.294186
322.044647	3.767967	-111.895851	-59.545567
322.496704	-53.335133	-37.350140	34.778709
322.948639	-30.983778	12.294271	-44.642090
323.400604	-35.950069	-34.866882	2.526897
323.852509	-18.570162	-64.672516	-12.364470
324.304352	-28.500927	-37.350140	-99.306519
324.756165	-16.087700	-34.866882	-42.158657
325.207916	-33.466869	-47.284084	-64.514153
325.659668	-13.605341	-2.594633	-104.278503
326.111328	-16.087700	-64.672516	-64.514153
326.562988	-95.577576	-12.522700	5.008471
327.014557	-1.195390	7.331765	22.376307
327.466156	23.616825	-109.409546	-22.294186
327.917664	-63.271660	-124.329529	-49.609539
328.369110	-85.635391	-15.005013	47.178665
328.820557	80.645767	-7.558390	-71.967880
329.271942	-26.018044	2.368707	-4.918317
329.723297	55.857323	-24.935040	-74.452721
330.174561	-26.018044	-64.672516	-14.846777
330.625854	-30.983778	4.850288	-54.577271
331.077026	8.730772	34.620743	-59.545567
331.528229	-60.787434	-17.487295	-12.364470
331.979370	-3.677091	-19.969816	-19.811567
332.430450	-13.605341	-42.316833	-27.259605
332.881500	-63.271660	12.294271	-4.918317
333.332489	-78.179901	-27.417875	-24.776911
333.783478	-8.641074	-37.350140	17.414511
334.234406	-28.500927	-52.251621	-12.364470
334.685303	-43.400158	-72.126274	-17.329052
335.136078	-38.433235	-64.672516	14.933591
335.586914	-50.851192	-74.611115	-89.363693
336.037659	13.693295	44.540775	39.739056
336.488342	-90.606194	44.540775	32.298519
336.939026	40.979210	-19.969816	-99.306519
337.389648	40.979210	-44.800404	-57.061367
337.840240	13.693295	69.334038	9.971172
338.290771	-78.179901	-22.452444	5.008471
338.741272	-85.635391	-29.900818	14.933591
339.191681	-38.433235	-0.112843	-2.436430
339.642120	-53.335133	2.368707	22.376307
340.092468	40.979210	-44.800404	-7.400309
340.542816	-18.570162	42.060989	-66.998665
340.993103	-70.725372	14.775435	-17.329052
341.443329	-13.605341	2.368707	-59.545567
341.893555	-53.335133	81.726685	-14.846777
342.343689	-48.367363	-2.594633	-66.998665
342.793793	26.097515	49.500305	32.298519
343.243866	-1.195390	-10.040493	-24.776911
343.693878	3.767967	2.368707	64.534180
344.143890	-11.123223	9.813137	-32.225582
344.593842	-65.756126	136.224396	-7.400309
345.043732	-23.535265	74.291382	49.658371
345.493591	-55.819035	7.331765	-14.846777
345.943359	-21.052593	59.417999	-42.158657
346.393158	-55.819035	84.204964	7.489941
346.842896	1.286340	69.334038	-19.811567
347.292542	-13.605341	126.319366	-52.093285
347.742218	-28.500927	44.540775	81.884666
348.191803	40.979210	96.594536	57.096741
348.641357	-50.851192	22.218170	44.698853
349.090881	-40.916641	111.458847	24.857048
349.540314	-55.819035	84.204964	59.575901
349.989777	-18.570162	193.146866	91.796989
350.439148	-55.819035	262.372711	242.759186
350.888489	-16.087700	582.788574	356.356384
351.337799	-53.335133	960.367188	673.853149
351.787048	-60.787434	1552.148315	911.603210
352.236267	-50.851192	2081.677979	994.746582
352.685425	-80.664864	2252.637939	1077.793335
353.134552	-40.916641	2146.730713	825.911560
353.583649	-58.303181	1818.548950	661.575562
354.032684	-135.363297	1323.781616	486.987976
354.481659	-53.335133	894.317383	336.615112
354.930634	-63.271660	717.877747	267.471893
355.379517	-50.851192	668.785889	210.618118
355.828430	75.688812	415.386169	247.702560
356.277222	-11.123223	449.886719	218.036911
356.726013	-30.983778	437.567322	230.399292
357.174774	8.730772	375.934174	148.761108
357.623444	-50.851192	412.921112	198.251770
358.072113	-16.087700	361.133423	163.612488
358.520721	-13.605341	457.277130	247.702560
358.969299	-43.400158	348.796875	205.672043
359.417786	-18.570162	375.934174	158.662338
359.866302	-120.440453	427.709869	136.382095
360.314697	-48.367363	375.934174	245.230942
360.763123	-115.466934	440.031158	124.000687
361.211456	-88.120804	422.780579	158.662338
361.659760	-45.883778	373.467590	292.174774
362.108032	-50.851192	383.333374	252.645554
362.556244	-30.983778	356.198975	156.187378
363.004456	6.249354	341.393646	213.091141
363.452576	-8.641074	417.851166	183.408798
363.900696	8.730772	454.813934	358.823639
364.348663	-90.606194	710.516113	546.055359
364.796722	-38.433235	1304.314697	847.956726
365.244690	-13.605341	1775.016235	970.302612
365.692596	-93.091835	1864.475098	877.339172
366.140472	16.174267	1447.766357	607.527222
366.588287	-8.641074	945.694519	469.749908
367.036102	63.294918	749.768372	344.018921
367.483826	1.286340	479.443848	319.336426
367.931549	-88.120804	427.709869	302.053040
368.379181	-35.950069	378.400665	232.871521
368.826843	-45.883778	383.333374	287.234924
369.274384	-35.950069	452.350372	220.509628
369.721924	-70.725372	425.245270	279.824432
370.169403	-68.240692	474.518494	225.454529
370.616821	-60.787434	479.443848	166.087418
371.064270	-58.303181	435.103088	284.764862
371.511566	-85.635391	417.851166	302.053040
371.958923	-68.240692	449.886719	309.460907
372.406158	-93.091835	501.602966	309.460907
372.853424	36.019108	447.422974	331.678741
373.300568	3.767967	511.448914	363.757629
373.747711	-103.035301	494.217346	358.823639
374.194794	-28.500927	521.293640	336.615112
374.641846	-80.664864	631.943420	344.018921
375.088898	-75.694908	617.200806	437.724243
375.535828	18.655268	820.855652	516.528198
375.982758	-60.787434	1033.683594	661.575562
376.429596	6.249354	1311.615601	894.473267
376.876465	-38.433235	1949.009521	1255.780518
377.323242	-21.052593	2454.471924	1530.467285
377.769989	-55.819035	2856.804443	1763.073853
378.216675	-35.950069	2933.243652	1891.206299
378.663330	38.499279	2880.698242	1763.073853
379.109985	28.578102	2763.560059	1379.876343
379.556519	-38.433235	2401.655029	1121.720581
380.003052	33.538830	1922.450928	953.186951
380.449524	-83.150078	1396.738403	651.751709
380.895996	-85.635391	1138.640991	573.109985
381.342377	-105.521469	847.800415	504.221436
381.788727	16.174267	641.770203	390.888794
382.235046	-40.916641	550.818359	230.399292
382.681274	-60.787434	491.755280	297.113953
383.127533	-35.950069	496.679321	314.398743
383.573669	-28.500927	508.987518	302.053040
384.019836	-112.980476	440.031158	329.210419
384.465912	-73.210014	417.851166	292.174774
384.911957	3.767967	398.128967	272.413300
385.357971	-50.851192	435.103088	302.053040
385.803925	-33.466869	385.799591	225.454529
386.249847	-55.819035	479.443848	274.883850
386.695679	-35.950069	380.867065	304.522430
387.141541	-35.950069	508.987518	252.645554
387.587311	13.693295	479.443848	309.460907
388.033051	-45.883778	422.780579	334.146973
388.478729	38.499279	489.293396	321.805145
388.924408	-1.195390	442.495209	351.421600
389.369995	-18.570162	432.638794	260.059021
389.815552	-53.335133	395.663208	339.083160
390.261078	-120.440453	484.368805	292.174774
390.706543	-43.400158	444.959137	326.742279
391.152008	-73.210014	454.813934	385.956665
391.597351	-1.195390	533.597168	329.210419
392.042725	-11.123223	496.679321	282.294678
392.487976	-95.577576	444.959137	336.615112
392.933289	-58.303181	469.593048	319.336426
393.378479	-35.950069	474.518494	361.290558
393.823639	-55.819035	462.203766	294.644287
394.268768	-43.400158	484.368805	366.224609
394.713837	-30.983778	558.197327	351.421600
395.158905	18.655268	587.705750	376.091522
395.603851	-6.159030	533.597168	435.260040
396.048798	-45.883778	449.886719	368.691467
396.493683	-60.787434	553.278198	440.188354
396.938568	-73.210014	494.217346	366.224609
397.383392	-63.271660	558.197327	408.147980
397.828156	-45.883778	582.788574	381.024170
398.272888	-95.577576	661.418945	420.473053
398.717560	-63.271660	614.743347	454.970825
399.162201	-78.179901	624.572693	346.486389
399.606781	-35.950069	575.412109	319.336426
400.051361	-21.052593	607.370667	484.525635
400.495819	-100.549232	555.737915	388.422791
400.940308	-30.983778	582.788574	435.260040
401.384705	-30.983778	526.215149	536.214355
401.829102	-26.018044	580.329834	482.063202
402.273438	-38.433235	639.313660	518.989319
402.717682	6.249354	592.622314	452.507294
403.161926	1.286340	609.828186	454.970825
403.606110	-16.087700	597.538818	575.568970
404.050293	-26.018044	1011.696716	767.090271
404.494385	-45.883778	1404.030029	994.746582
404.938446	-50.851192	1484.194702	818.561523
405.382477	-58.303181	1379.721436	749.924805
405.826447	-112.980476	994.590942	573.109985
406.270386	-65.756126	776.741272	543.595215
406.714233	-21.052593	673.696777	514.067017
407.158081	36.019108	695.790710	474.675629
407.601868	-63.271660	737.504517	494.374420
408.045624	-26.018044	818.405518	553.434875
408.489319	-1.195390	933.465271	590.320801
408.933014	3.767967	1097.164185	845.507568
409.376617	-28.500927	1731.459961	1523.187256
409.820190	-43.400158	3195.546387	2641.638672
410.263702	-13.605341	5146.834473	3497.679199
410.707184	-70.725372	6343.074219	3590.233643
411.150635	-68.240692	6479.639648	3281.391357
411.594025	-55.819035	5604.389160	2754.144287
412.037384	-23.535265	4922.075195	2490.619385
412.480682	38.499279	4240.416016	2014.317505
412.923981	-75.694908	3514.146484	1649.278198
413.367126	-53.335133	2823.342529	1338.533447
413.810333	-26.018044	2173.219727	1060.703247
414.253479	8.730772	1612.771851	801.408691
414.696533	-13.605341	1136.201782	624.729187
415.139587	6.249354	948.140198	578.027893
415.582581	-33.466869	811.054688	459.897675
416.025543	23.616825	636.856995	437.724243
416.468414	-35.950069	634.400269	435.260040
416.911285	-40.916641	644.226379	435.260040
417.354065	-40.916641	622.115479	395.820282
417.796875	-6.159030	681.062134	408.147980
418.239594	-16.087700	479.443848	445.116333
418.682281	-95.577576	587.705750	366.224609
419.124908	-65.756126	528.675903	454.970825
419.567505	73.210320	617.200806	486.987976
420.010071	-26.018044	531.136597	491.912354
420.452545	-68.240692	627.029541	420.473053
420.895020	-30.983778	565.575745	486.987976
421.337372	-63.271660	538.518066	390.888794
421.779785	-53.335133	555.737915	464.823853
422.222107	-48.367363	506.526245	385.956665
422.664368	-78.179901	516.371460	427.867096
423.106628	-90.606194	548.358398	523.911316
423.548798	-30.983778	649.139099	385.956665
423.990967	-23.535265	658.963074	395.820282
424.433044	-8.641074	624.572693	430.331329
424.875092	-50.851192	516.371460	474.675629
425.317078	-68.240692	617.200806	516.528198
425.759064	-8.641074	634.400269	482.063202
426.200989	-55.819035	695.790710	482.063202
426.642853	-40.916641	631.943420	432.795715
427.084686	-60.787434	712.970032	462.360931
427.526459	-6.159030	550.818359	514.067017
427.968201	23.616825	619.658203	504.221436
428.409912	-48.367363	720.331421	504.221436
428.851563	11.212086	705.608215	482.063202
429.293121	-115.466934	710.516113	437.724243
429.734711	-108.007599	749.768372	496.836121
430.176239	1.286340	649.139099	560.813782
430.617706	-8.641074	666.330322	516.528198
431.059113	-68.240692	698.245239	400.751648
431.500488	-43.400158	683.517151	469.749908
431.941833	-55.819035	676.151794	494.374420
432.383087	-35.950069	614.743347	543.595215
432.824341	-58.303181	725.238525	462.360931
433.265533	-1.195390	688.427002	568.191650
433.706726	-43.400158	717.877747	521.450378
434.147827	-95.577576	757.125732	609.984924
434.588867	-68.240692	882.078918	705.764465
435.029877	-3.677091	1187.406982	1163.183472
435.470825	8.730772	2420.864746	2260.007813
435.911804	-73.210014	3483.281006	2223.920410
436.352661	13.693295	3409.642090	1821.120728
436.793518	-117.953644	2464.072021	1367.719116
437.234283	-45.883778	1975.560059	1170.497803
437.675049	-13.605341	1649.123535	1150.990967
438.115723	31.058451	1184.969360	1002.078247
438.556396	-21.052593	1060.547729	813.661377
438.997040	-45.883778	1119.125488	857.752136
439.437561	-38.433235	1028.798340	847.956726
439.878113	-28.500927	1206.904297	821.011658
440.318573	-21.052593	1028.798340	830.811157
440.759033	-40.916641	1075.196655	909.156311
441.199341	-40.916641	1172.780518	786.702942
441.639709	-40.916641	1126.444458	821.011658
442.079956	6.249354	1138.640991	916.496765
442.520264	-68.240692	1202.030396	882.235107
442.960510	38.499279	1194.719116	889.578186
443.400604	28.578102	1233.704712	936.067139
443.840759	-53.335133	1316.482056	852.854492
444.280762	1.286340	1282.408325	889.578186
444.720825	-53.335133	1170.342529	945.850586
445.160767	-45.883778	1099.604614	879.787231
445.600739	-90.606194	1153.274170	872.442810
446.040558	-18.570162	1141.080078	914.050049
446.480438	-93.091835	1131.323120	823.461670
446.920258	-90.606194	1209.341187	781.800476
447.359955	-1.195390	1233.704712	862.649475
447.799713	3.767967	1262.930908	845.507568
448.239319	-8.641074	1199.593262	926.282654
448.678955	58.336536	1389.445679	923.836243
449.118500	-65.756126	1663.659912	1199.748779
449.558014	-28.500927	2074.447021	1554.728760
449.997498	-68.240692	3090.709961	2389.800049
450.436951	8.730772	5867.390625	4936.284668
450.876343	45.939041	10570.519531	8180.339355
451.315674	-73.210014	15486.738281	10671.658203
451.754974	-80.664864	18438.767578	10530.246094
452.194183	-50.851192	18021.242188	9509.482422
452.633392	-48.367363	15993.146484	8063.848145
453.072510	-33.466869	14227.466797	7371.920898
453.511688	-28.500927	12223.409180	6604.649414
453.950684	-88.120804	10420.025391	5602.207520
454.389740	-53.335133	8599.638672	4353.678711
454.828735	-58.303181	6904.587402	3378.896484
455.267639	-75.694908	5125.781738	2576.946533
455.706543	36.019108	3758.368408	2016.729736
456.145325	-43.400158	2837.684570	1552.303223
456.584137	-70.725372	2062.393799	1370.150757
457.022858	-6.159030	1622.467285	965.413086
457.461578	-38.433235	1340.811157	869.994568
457.900208	16.174267	1163.028076	742.566711
458.338867	-16.087700	1072.755249	695.947327
458.777405	-63.271660	967.702087	627.186279
459.215912	-38.433235	938.357300	592.779175
459.654388	-33.466869	972.591736	605.069397
460.092773	-58.303181	806.153992	602.611450
460.531189	-90.606194	803.703369	568.191650
460.969513	-68.240692	764.482056	582.945129
461.407806	-33.466869	710.516113	516.528198
461.846008	-45.883778	641.770203	570.650879
462.284241	13.693295	656.507385	486.987976
462.722351	-3.677091	614.743347	464.823853
463.160461	-68.240692	803.703369	467.286926
463.598541	6.249354	656.507385	425.402496
464.036530	-43.400158	612.285767	504.221436
464.474518	-26.018044	725.238525	477.138306
464.912384	-3.677091	705.608215	558.354248
465.350281	-35.950069	693.336182	523.911316
465.788086	-8.641074	825.755554	666.486694
466.225891	43.459179	1038.568848	740.113770
466.663605	-38.433235	1262.930908	899.368042
467.101318	-50.851192	1323.781616	899.368042
467.539001	-40.916641	1360.268799	887.130493
467.976563	26.097515	1304.314697	855.303345
468.414124	-30.983778	1070.313843	786.702942
468.851593	21.136166	945.694519	771.994019
469.289063	-43.400158	960.367188	779.348999
469.726440	-63.271660	911.447327	713.126648
470.163849	11.212086	813.505066	737.660767
470.601135	-11.123223	889.422302	639.470154
471.038422	-120.440453	823.305603	600.153442
471.475677	-21.052593	766.934082	592.779175
471.912811	-23.535265	759.578064	573.109985
472.350006	43.459179	788.998047	612.442566
472.787048	-53.335133	855.147400	612.442566
473.224121	-33.466869	752.220947	563.273254
473.661072	36.019108	752.220947	595.237427
474.098053	8.730772	752.220947	587.862366
474.534943	-13.605341	744.863037	683.673523
474.971802	1.286340	943.249084	693.492737
475.408630	-28.500927	1053.222168	749.924805
475.845367	-33.466869	1099.604614	693.492737
476.282104	-60.787434	860.044922	661.575562
476.718750	6.249354	793.900024	659.119751
477.155426	-65.756126	872.286926	575.568970
477.591949	31.058451	742.410461	705.764465
478.028503	-55.819035	710.516113	587.862366
478.464966	-65.756126	764.482056	664.031372
478.901428	-23.535265	744.863037	671.397766
479.337860	21.136166	867.390259	651.751709
479.774170	-53.335133	835.554077	641.926636
480.210510	13.693295	757.125732	597.695618
480.646698	-38.433235	722.785034	688.583313
481.082947	1.286340	771.837830	550.975037
481.519073	-38.433235	867.390259	659.119751
481.955200	-33.466869	781.644104	693.492737
482.391266	-35.950069	921.233948	678.763672
482.827301	-73.210014	811.054688	713.126648
483.263306	-50.851192	860.044922	786.702942
483.699188	8.730772	779.192566	725.394836
484.135101	-60.787434	833.104553	757.281921
484.570923	-23.535265	909.000488	764.638550
485.006744	11.212086	955.476624	725.394836
485.442413	-48.367363	972.591736	681.218750
485.878174	-73.210014	940.803223	784.251648
486.313782	-95.577576	928.572876	796.507324
486.749390	-38.433235	975.036438	811.211060
487.184998	-70.725372	975.036438	754.829529
487.620453	-105.521469	904.106384	794.056396
488.055939	-53.335133	1001.922302	774.445740
488.491333	-55.819035	916.340698	749.924805
488.926727	-68.240692	982.369812	700.855957
489.362030	13.693295	1084.960815	794.056396
489.797302	-45.883778	1060.547729	845.507568
490.232513	-58.303181	1087.401733	874.891052
490.667755	-13.605341	989.702698	899.368042
491.102905	-11.123223	1087.401733	847.956726
491.537964	-6.159030	1060.547729	916.496765
491.973022	-21.052593	1194.719116	962.967957
492.407990	-23.535265	1075.196655	896.920715
492.842957	-35.950069	1121.565186	874.891052
493.277832	-103.035301	1067.872437	887.130493
493.712738	-38.433235	1082.519775	845.507568
494.147491	13.693295	1114.245728	852.854492
494.582275	-38.433235	1092.283325	791.605286
495.017029	-30.983778	1131.323120	833.260803
495.451660	-6.159030	1199.593262	936.067139
495.886292	-45.883778	1097.164185	1043.609253
496.320831	-60.787434	1321.348633	1121.720581
496.755402	48.418663	1588.527954	1275.260010
497.189850	-85.635391	2190.072266	1862.212646
497.624298	-35.950069	3333.571289	2756.536377
498.058655	-33.466869	5095.365234	3583.117188
498.493042	-80.664864	5643.992676	3677.965576
498.927368	-50.851192	5324.463379	3090.862061
499.361572	60.815777	4056.357666	2756.536377
499.795807	-58.303181	3321.680176	2264.818359
500.229919	-28.500927	2725.279541	1990.192261
500.664063	-43.400158	2271.880371	1816.285156
501.098083	-58.303181	1743.561401	1530.467285
501.532104	3.767967	1416.181519	1340.966064
501.966064	-100.549232	1335.945923	1102.200806
502.399994	-26.018044	1223.960327	1033.839478
502.833893	-45.883778	1155.712769	1026.511108
503.267700	-28.500927	1265.365601	914.050049
503.701477	-40.916641	1148.396606	882.235107
504.135193	-70.725372	1106.925659	1053.377563
504.568909	16.174267	1136.201782	830.811157
505.002502	-18.570162	1060.547729	803.859436
505.436127	-117.953644	1133.762573	909.156311
505.869629	28.578102	1102.045166	884.682739
506.303162	-93.091835	1109.365845	823.461670
506.736603	-90.606194	1033.683594	914.050049
507.169983	-108.007599	1065.430908	825.911560
507.603363	-78.179901	1070.313843	987.414185
508.036621	-16.087700	1138.640991	962.967957
508.469940	-50.851192	1192.281738	953.186951
508.903107	-95.577576	1241.012451	928.728943
509.336304	-75.694908	1219.087524	989.858459
509.769379	-48.367363	1182.531738	972.747437
510.202484	-18.570162	1270.235474	987.414185
510.635529	-35.950069	1416.181519	1031.396729
511.068481	-21.052593	1394.307617	1021.625061
511.501434	-43.400158	1416.181519	1058.261475
511.934265	31.058451	1411.321289	1055.819580
512.367126	-68.240692	1350.540405	997.190613
512.799927	-135.363297	1408.890991	926.282654
513.232605	-26.018044	1287.277100	1072.910767
513.665344	-26.018044	1316.482056	938.513123
514.097961	-21.052593	1262.930908	984.970215
514.530579	-38.433235	1547.296631	1343.398560
514.963135	-68.240692	1881.388916	1600.805420
515.395691	13.693295	2319.967041	1639.585693
515.828064	-55.819035	2310.352051	1440.633667
516.260498	-103.035301	1939.352905	1401.754639
516.692871	-48.367363	1857.225342	1221.679199
517.125183	40.979210	1733.880493	1177.811646
517.557373	-95.577576	1678.193359	1250.910034
517.989624	-58.303181	1629.738159	1170.497803
518.421753	-65.756126	1617.619629	1204.622681
518.853943	3.767967	1484.194702	1182.687256
519.286072	-98.063286	1641.854614	1158.306641
519.718018	6.249354	1707.252319	1233.860107
520.150024	-3.677091	1784.692017	1204.622681
520.581909	-63.271660	1719.357056	1238.731689
521.013855	-33.466869	1835.472046	1248.474487
521.445679	-8.641074	1849.974854	1294.734497
521.877502	-30.983778	1871.724365	1272.825317
522.309204	-48.367363	1806.458740	1297.168457
522.740906	-13.605341	1828.219849	1267.955933
523.172546	-70.725372	1837.889404	1289.866211
523.604187	-21.052593	1779.854370	1194.874390
524.035767	-48.367363	1712.094482	1224.115479
524.467224	38.499279	1540.018188	1160.744995
524.898682	-50.851192	1506.043457	1182.687256
525.330078	-40.916641	1421.041748	1107.081055
525.761475	-40.916641	1462.339966	1092.438721
526.192749	-26.018044	1365.132202	1107.081055
526.624023	-70.725372	1335.945923	1107.081055
527.055237	-6.159030	1331.080444	1111.961426
527.486389	18.655268	1362.700684	1109.521240
527.917542	-40.916641	1374.858643	1219.242920
528.348572	16.174267	1377.290039	1277.694580
528.779663	-85.635391	1472.053955	1194.874390
529.210571	-35.950069	1527.886108	1209.496338
529.641541	-23.535265	1639.431519	1231.424072
530.072388	-85.635391	1692.724121	1255.780518
530.503235	23.616825	1823.384399	1411.476074
530.934082	-28.500927	1874.140625	1486.777466
531.364746	-75.694908	1956.251465	1540.172729
531.795532	-40.916641	2163.588135	1695.299927
532.226135	-18.570162	2600.759033	1927.434326
532.656738	-6.159030	2997.692627	2279.248047
533.087280	-13.605341	3428.650635	2787.630127
533.517822	48.418663	4950.193848	3801.140137
533.948242	-28.500927	8535.893555	7599.147461
534.378662	-13.605341	20527.914063	18548.208984
534.809082	-58.303181	40140.511719	32073.156250
535.239319	8.730772	58752.703125	40521.183594
535.669617	-103.035301	64672.980469	40088.968750
536.099792	-6.159030	60678.925781	35310.460938
536.529968	-68.240692	52702.558594	30110.941406
536.960083	-43.400158	46051.652344	27261.291016
537.390137	-33.466869	40421.832031	24906.810547
537.820190	-13.605341	35558.386719	23094.933594
538.250183	13.693295	30081.865234	20580.623047
538.680115	-11.123223	25659.267578	16781.474609
539.109985	-23.535265	21137.125000	13552.783203
539.539795	-23.535265	17479.056641	11063.798828
539.969543	-83.150078	15025.800781	8904.435547
540.399292	-43.400158	12185.617188	7279.998047
540.828979	-70.725372	9518.382813	5972.115234
541.258606	-68.240692	6932.252441	4851.897461
541.688171	-40.916641	5165.544922	3682.705811
542.117737	-45.883778	3952.392578	3038.401367
542.547302	-68.240692	3059.714111	2406.611084
542.976685	-38.433235	2579.190430	2045.670044
543.406128	-65.756126	2175.627441	1695.299927
543.835388	-63.271660	1903.130127	1438.204224
544.264771	-103.035301	1707.252319	1438.204224
544.693970	-26.018044	1557.000000	1357.991699
545.123230	-68.240692	2026.223877	1869.462158
545.552307	26.097515	5753.416016	5914.027832
545.981506	-60.787434	10325.610352	7711.466309
546.410583	-21.052593	11666.816406	7010.748535
546.839539	-63.271660	8088.835938	5142.305664
547.268555	-26.018044	5506.489746	3715.880859
547.697449	-45.883778	4663.998535	3336.101318
548.126282	-55.819035	4053.996094	2871.293457
548.555054	-21.052593	3166.965576	2600.911865
548.983887	-16.087700	2129.869873	2209.481201
549.412598	40.979210	1557.000000	1755.814941
549.841309	-58.303181	1481.766602	1411.476074
550.269958	-16.087700	1270.235474	1243.603271
550.698486	-73.210014	1209.341187	1063.145020
551.127075	-53.335133	1287.277100	1119.281006
551.555481	-6.159030	1124.004883	1097.319824
551.983948	-105.521469	1289.711182	1104.640869
552.412292	-60.787434	1508.470703	1260.650879
552.840698	-43.400158	1724.198486	1372.582031
553.268860	-35.950069	1811.295166	1309.337036
553.697205	-16.087700	1712.094482	1155.868042
554.125366	-63.271660	1576.403442	1177.811646
554.553467	-45.883778	1399.168823	1121.720581
554.981628	-53.335133	1343.243652	1114.401245
555.409607	-53.335133	1377.290039	1138.796265
555.837646	-33.466869	1260.495850	1041.166748
556.265564	-50.851192	1270.235474	1006.965271
556.693481	36.019108	1197.156128	1016.738953
557.121338	-117.953644	1145.958008	896.920715
557.549133	6.249354	1165.466187	1041.166748
557.976929	18.655268	1143.519043	1082.675537
558.404602	18.655268	1233.704712	1036.281860
558.832275	-60.787434	1316.482056	975.192139
559.259888	-21.052593	1184.969360	955.632324
559.687439	-21.052593	1287.277100	975.192139
560.114929	-48.367363	1299.447144	1004.521667
560.542419	-105.521469	1158.151245	992.302551
560.969788	-28.500927	1211.777954	916.496765
561.397156	6.249354	1219.087524	1111.961426
561.824524	-63.271660	1216.651001	999.634399
562.251770	-11.123223	1189.844360	970.302612
562.679016	-40.916641	1214.214355	1033.839478
563.106140	-63.271660	1223.960327	992.302551
563.533264	-33.466869	1287.277100	1063.145020
563.960327	-16.087700	1199.593262	992.302551
564.387329	-83.150078	1223.960327	1104.640869
564.814331	-6.159030	1233.704712	1136.357422
565.241272	-8.641074	1350.540405	1099.760376
565.668213	-40.916641	1377.290039	1326.369629
566.094971	-45.883778	1493.906128	1443.062988
566.521790	-120.440453	1866.891479	1719.511475
566.948425	-95.577576	2368.027832	2173.373047
567.375183	40.979210	3150.289795	2935.783936
567.801819	-23.535265	6023.060547	5576.574707
568.228394	-43.400158	11553.053711	10422.416016
568.654846	-43.400158	18552.441406	13901.454102
569.081421	85.602165	19742.058594	13188.098633
569.507874	-58.303181	16242.855469	10354.984375
569.934265	21.136166	11479.400391	8011.279297
570.360596	-117.953644	9020.064453	6551.482910
570.786865	-100.549232	7523.303223	5909.379883
571.213074	26.097515	5543.794434	4884.722168
571.639282	-78.179901	3862.522705	4235.850586
572.065430	-73.210014	2627.114258	3383.650635
572.491516	6.249354	2031.047241	2596.119385
572.917603	-1.195390	1653.969360	1937.092285
573.343567	-50.851192	1544.870605	1671.081055
573.769531	-60.787434	1416.181519	1394.462402
574.195435	-23.535265	1304.314697	1292.300415
574.621277	-120.440453	1321.348633	1197.311646
575.047119	-73.210014	1297.013428	1258.215820
575.472839	8.730772	1350.540405	1185.124878
575.898560	-50.851192	1552.148315	1479.493408
576.324158	-30.983778	2084.088379	2011.905273
576.749817	-73.210014	2995.306152	2418.616943
577.175293	-95.577576	3328.814941	2425.819580
577.600830	-8.641074	3016.780029	2122.796387
578.026306	-21.052593	2464.072021	1939.506714
578.451721	-70.725372	2890.254150	2557.769531
578.877136	-3.677091	3502.275879	2938.171387
579.302429	-40.916641	3656.480957	2684.741943
579.727661	-28.500927	3155.054443	2377.789551
580.152832	-78.179901	2396.851807	2007.080566
580.578064	-16.087700	2223.767090	1900.868774
581.003113	16.174267	2269.474854	1734.034912
581.428223	-1.195390	2139.505127	1787.265137
581.853271	-65.756126	1811.295166	1738.875244
582.278198	-55.819035	1673.349121	1724.352783
582.703125	11.212086	1738.721069	1661.391724
583.127930	-6.159030	1658.814697	1675.925415
583.552795	-45.883778	1842.723877	1796.939575
583.977539	-21.052593	2093.728760	1806.612793
584.402283	-28.500927	2202.107422	2038.435791
584.826965	13.693295	2377.636475	2190.225342
585.251587	-21.052593	2808.998291	2483.421387
585.676208	-63.271660	2978.600830	2746.966797
586.100647	-73.210014	3559.240234	3414.546143
586.525208	-48.367363	4454.761230	4153.295410
586.949524	26.097515	6088.058105	5571.913574
587.373962	-60.787434	8947.433594	8403.901367
587.798218	-105.521469	15552.540039	14606.151367
588.222534	31.058451	24073.685547	19777.205078
588.646729	-30.983778	27839.000000	20398.841797
589.070984	-80.664864	25825.445313	19254.416016
589.495117	-60.787434	25440.001953	22331.498047
589.919128	-75.694908	32886.281250	28388.449219
590.343201	-98.063286	40771.761719	31635.123047
590.767151	-18.570162	43900.074219	32539.876953
591.191101	-33.466869	42083.140625	30734.109375
591.614990	-63.271660	39258.015625	28579.769531
592.038818	-53.335133	36366.710938	26202.458984
592.462524	-65.756126	34324.203125	24042.923828
592.886292	-43.400158	30711.714844	22061.210938
593.310059	3.767967	27325.580078	20602.527344
593.733582	-73.210014	24298.890625	18605.046875
594.157227	-45.883778	21466.121094	16562.634766
594.580750	-55.819035	19315.509766	14678.722656
595.004272	-93.091835	17181.654297	13309.726563
595.427673	-73.210014	15857.284180	12016.703125
595.851074	-68.240692	14524.623047	11110.791016
596.274353	-18.570162	13548.225586	10046.656250
596.697632	-60.787434	12645.289063	9226.544922
597.120911	-85.635391	11646.746094	8788.566406
597.544067	-40.916641	10938.276367	8068.417969
597.967224	-30.983778	10264.882813	7571.625488
598.390320	-40.916641	9588.458984	6895.511719
598.813354	-55.819035	9128.939453	6569.977539
599.236328	31.058451	8672.453125	6225.052734
599.659241	-8.641074	8305.708984	6046.426270
600.082153	-1.195390	8077.412109	5720.980469
600.505005	-16.087700	7357.989258	5569.583008
600.927795	-65.756126	6842.320313	5102.534668
601.350525	-23.535265	6720.003906	4980.797363
601.773254	-38.433235	6292.113281	4586.611328
602.195862	-21.052593	6210.995605	4419.607910
602.618408	-21.052593	5872.040527	4285.353516
603.040955	-38.433235	5688.239746	4099.010742
603.463440	-13.605341	5322.128418	3879.234619
603.885925	8.730772	5273.072266	3782.199707
604.308350	-3.677091	4936.135254	3656.632324
604.730652	38.499279	4917.388184	3473.934082
605.152893	-13.605341	4617.012695	3409.793457
605.575195	-16.087700	4534.740234	3238.553955
605.997375	-23.535265	4282.846191	3102.780762
606.419495	-28.500927	4091.777832	2895.184326
606.841553	-108.007599	4072.888428	2849.787354
607.263672	-95.577576	3860.156738	2778.064209
607.685608	-35.950069	3812.825439	2861.736084
608.107605	-80.664864	3537.882324	2588.930176
608.529480	-70.725372	3582.965820	2413.814697
608.951294	-78.179901	3473.782227	2397.005127
609.373108	-135.363297	3473.782227	2572.152588
609.794800	-23.535265	3440.529053	2964.432373
610.216553	-78.179901	3580.593994	2892.795166
610.638123	-40.916641	3563.986084	2983.526855
611.059753	-88.120804	3412.018066	2730.218018
611.481262	-16.087700	3138.376709	2473.823975
611.902832	-65.756126	3021.551514	2336.944336
612.324219	-23.535265	3016.780029	2284.057617
612.745605	-85.635391	2856.804443	2127.614502
613.166931	-28.500927	2730.065430	2192.632813
613.588196	-48.367363	2763.560059	1968.473755
614.009460	40.979210	2634.300293	2009.493042
614.430664	-3.677091	2550.424561	1958.819092
614.851807	-50.851192	2942.794434	2433.021729
615.272827	-53.335133	3680.185059	2976.366699
615.693909	-75.694908	4931.448730	4023.439697
616.114929	-73.210014	5118.763672	3801.140137
616.535889	-18.570162	5041.532227	3326.588379
616.956787	48.418663	3720.468506	2699.105469
617.377563	-53.335133	3326.436768	2507.411621
617.798340	-28.500927	2988.147217	2336.944336
618.219055	-88.120804	2980.987793	2180.595947
618.639832	-167.709503	2598.363037	2067.368896
619.060364	-8.641074	2348.806396	1864.629272
619.481018	-65.756126	2108.187012	1748.555664
619.901611	-35.950069	2084.088379	1688.034912
620.322083	11.212086	1874.140625	1530.467285
620.742493	-58.303181	1847.557861	1447.921387
621.162842	-38.433235	1876.556885	1430.915771
621.583191	-55.819035	1801.622192	1292.300415
622.003418	-48.367363	1610.347778	1260.650879
622.423706	-105.521469	1736.300903	1353.127808
622.843872	-63.271660	1683.036987	1299.602417
623.264038	-1.195390	1639.431519	1221.679199
623.684143	-78.179901	1544.870605	1155.868042
624.104126	-40.916641	1537.591797	1180.249390
624.524170	-65.756126	1637.008179	1102.200806
624.944031	18.655268	1520.605835	1238.731689
625.364014	-35.950069	1450.195557	1168.059937
625.783752	-30.983778	1416.181519	1270.390747
626.203552	-38.433235	1435.619995	1119.281006
626.623230	-30.983778	1544.870605	1053.377563
627.042969	-65.756126	1428.331299	1148.552246
627.462585	-40.916641	1554.574219	1072.910767
627.882141	-8.641074	1418.611694	1046.051514
628.301697	-23.535265	1311.615601	1033.839478
628.721130	-11.123223	1372.427246	1087.557129
629.140625	-26.018044	1328.647705	1024.068115
629.559998	-80.664864	1311.615601	1043.609253
629.979309	-103.035301	1389.445679	945.850586
630.398560	28.578102	1267.800537	887.130493
630.817810	13.693295	1248.319214	916.496765
631.237000	-11.123223	1197.156128	1004.521667
631.656067	-18.570162	1206.904297	1009.408875
632.075195	36.019108	1177.656372	1033.839478
632.494202	-33.466869	1221.523926	906.709290
632.913208	13.693295	1204.467407	877.339172
633.332092	-33.466869	1148.396606	867.546509
633.750977	-73.210014	1209.341187	953.186951
634.169739	-30.983778	1055.664063	916.496765
634.588562	-6.159030	1121.565186	872.442810
635.007263	23.616825	1097.164185	869.994568
635.425964	-65.756126	1004.366028	821.011658
635.844543	-85.635391	1028.798340	801.408691
636.263123	-75.694908	1097.164185	838.159607
636.681641	-103.035301	960.367188	818.561523
637.100037	-23.535265	977.481079	759.734192
637.518494	1.286340	1124.004883	776.897400
637.936829	-53.335133	1048.337891	715.580505
638.355164	-33.466869	997.034607	823.461670
638.773438	-88.120804	1004.366028	857.752136
639.191650	-58.303181	987.258545	710.672668
639.609863	-80.664864	955.476624	801.408691
640.027893	-117.953644	957.921875	791.605286
640.445984	-53.335133	1001.922302	624.729187
640.863953	-26.018044	852.698486	703.310242
641.281921	-38.433235	935.911377	695.947327
641.699829	-3.677091	1006.809692	651.751709
642.117676	-26.018044	918.787354	818.561523
642.535461	-58.303181	948.140198	614.900146
642.953247	-18.570162	899.211914	779.348999
643.370972	-18.570162	872.286926	659.119751
643.788635	-50.851192	779.192566	698.401794
644.206177	8.730772	992.146912	661.575562
644.623718	1.286340	906.553467	762.186401
645.041260	-13.605341	953.031250	737.660767
645.458618	-28.500927	938.357300	767.090271
645.876099	-18.570162	889.422302	705.764465
646.293396	-63.271660	877.183228	771.994019
646.710693	-40.916641	825.755554	639.470154
647.127991	36.019108	950.585754	614.900146
647.545166	-16.087700	776.741272	668.942322
647.962341	40.979210	850.249512	597.695618
648.379333	-8.641074	852.698486	735.207764
648.796448	18.655268	857.596191	632.099915
649.213379	-63.271660	943.249084	671.397766
649.630310	-100.549232	850.249512	646.839539
650.047180	-70.725372	730.145081	560.813782
650.463989	21.136166	820.855652	649.295532
650.880859	-68.240692	779.192566	659.119751
651.297546	-70.725372	710.516113	612.442566
651.714233	-65.756126	747.315735	570.650879
652.130859	-16.087700	771.837830	595.237427
652.547485	-35.950069	737.504517	516.528198
652.963928	6.249354	722.785034	553.434875
653.380432	-65.756126	762.029968	651.751709
653.796814	-68.240692	815.955322	619.814697
654.213196	-48.367363	1121.565186	921.389771
654.629578	-70.725372	1917.621094	1557.154541
655.045837	-60.787434	2435.269531	1654.123779
655.462036	-1.195390	2495.264160	1673.503296
655.878174	-70.725372	1949.009521	1304.469727
656.294312	-120.440453	1680.615356	1102.200806
656.710327	-95.577576	1416.181519	994.746582
657.126404	-28.500927	1335.945923	1014.295654
657.542358	-13.605341	1184.969360	931.175232
657.958252	40.979210	1111.805908	987.414185
658.374084	-58.303181	970.146912	855.303345
658.789917	-8.641074	957.921875	720.487671
659.205688	-50.851192	857.596191	693.492737
659.621338	-73.210014	860.044922	578.027893
660.037048	13.693295	793.900024	514.067017
660.452637	-30.983778	649.139099	536.214355
660.868164	-68.240692	703.153992	415.543182
661.283691	-98.063286	739.957581	565.732361
661.699158	-60.787434	717.877747	619.814697
662.114502	3.767967	622.115479	477.138306
662.529846	43.459179	695.790710	447.579895
662.945129	-93.091835	693.336182	437.724243
663.360413	-6.159030	737.504517	501.759766
663.775635	-6.159030	744.863037	516.528198
664.190674	-11.123223	678.607056	469.749908
664.605835	-11.123223	622.115479	541.135071
665.020813	-6.159030	690.881714	482.063202
665.435791	1.286340	644.226379	600.153442
665.850769	8.730772	663.874634	486.987976
666.265625	-26.018044	685.972107	447.579895
666.680420	-11.123223	580.329834	528.832886
667.095215	-45.883778	690.881714	474.675629
667.509949	-108.007599	663.874634	469.749908
667.924622	-26.018044	685.972107	445.116333
668.339233	-26.018044	693.336182	459.897675
668.753784	-23.535265	627.029541	496.836121
669.168335	-73.210014	644.226379	536.214355
669.582825	13.693295	784.095520	678.763672
669.997192	-53.335133	1525.459473	1809.031006
670.411560	-80.664864	3433.402100	3857.941895
670.825867	-16.087700	4804.839355	4075.400391
671.240173	-26.018044	4588.811523	3511.923584
671.654358	-103.035301	3050.174561	2481.022217
672.068481	-38.433235	2480.869385	1966.060181
672.482605	36.019108	2199.700439	1692.878296
672.896667	11.212086	1953.837646	1637.162842
673.310669	-3.677091	1595.802124	1525.614014
673.724609	-40.916641	1333.513184	1377.444946
674.138489	-11.123223	960.367188	1209.496338
674.552307	-38.433235	784.095520	1046.051514
674.966064	-103.035301	703.153992	661.575562
675.379822	-80.664864	656.507385	609.984924
675.793579	-80.664864	735.051453	533.753906
676.207153	-28.500927	639.313660	585.403809
676.620789	-60.787434	698.245239	491.912354
677.034241	-11.123223	629.486511	413.078125
677.447754	-6.159030	597.538818	467.286926
677.861206	-38.433235	597.538818	482.063202
678.274597	-13.605341	595.080627	403.217163
678.687866	16.174267	563.116394	514.067017
679.101135	-26.018044	511.448914	418.008148
679.514404	-8.641074	513.910217	408.147980
679.927551	45.939041	523.754272	482.063202
680.340698	28.578102	528.675903	378.557739
680.753723	-30.983778	486.831146	341.551056
681.166748	-35.950069	427.709869	356.356384
681.579712	-95.577576	422.780579	385.956665
681.992615	8.730772	553.278198	260.059021
682.405457	-48.367363	469.593048	321.805145
682.818298	-53.335133	403.060150	257.588135
683.231018	3.767967	442.495209	368.691467
683.643738	-38.433235	501.602966	277.354065
684.056335	-13.605341	570.494263	294.644287
684.468994	-78.179901	705.608215	563.273254
684.881531	-11.123223	886.974609	516.528198
685.293945	-65.756126	830.654907	432.795715
685.706482	-28.500927	604.912842	484.525635
686.118774	-98.063286	501.602966	430.331329
686.531128	-40.916641	472.055939	351.421600
686.943481	-60.787434	560.656860	309.460907
687.355713	-3.677091	506.526245	272.413300
687.767883	-45.883778	462.203766	334.146973
688.179932	-48.367363	407.990692	331.678741
688.592041	-38.433235	366.067474	334.146973
689.004089	1.286340	346.329224	277.354065
689.416016	-38.433235	388.265442	302.053040
689.827881	-68.240692	531.136597	311.929749
690.239868	-13.605341	563.116394	405.682617
690.651611	-70.725372	457.277130	405.682617
691.063354	-85.635391	432.638794	319.336426
691.475098	-33.466869	338.925690	356.356384
691.886719	-63.271660	417.851166	356.356384
692.298340	-58.303181	407.990692	316.867645
692.709900	-21.052593	363.600494	272.413300
693.121460	-48.367363	292.017212	247.702560
693.532837	-80.664864	319.179199	274.883850
693.944214	-80.664864	250.016571	232.871521
694.355652	-88.120804	254.959381	294.644287
694.766846	-13.605341	222.824509	171.036957
695.178101	-23.535265	282.137360	200.725296
695.589294	-98.063286	274.726227	252.645554
696.000366	-50.851192	289.547455	277.354065
696.411438	-33.466869	301.895599	180.934586
696.822510	-88.120804	217.879288	269.942627
697.233459	-13.605341	324.116272	260.059021
697.644409	-13.605341	269.785156	240.287628
698.055298	-78.179901	316.710388	247.702560
698.466064	-1.195390	299.426117	203.198715
698.876831	58.336536	324.116272	183.408798
699.287537	-90.606194	203.041061	200.725296
699.698181	-55.819035	289.547455	257.588135
700.108826	-43.400158	284.607391	188.356949
700.519348	-58.303181	217.879288	255.116898
700.929810	-85.635391	225.297058	190.830872
701.340271	63.294918	227.769485	314.398743
701.750732	-110.493988	178.302673	232.871521
702.161011	-33.466869	222.824509	163.612488
702.571350	-43.400158	304.365021	128.953522
702.981567	28.578102	245.073502	242.759186
703.391724	-18.570162	309.303375	218.036911
703.801880	-45.883778	279.667084	148.761108
704.211914	-88.120804	296.956665	250.174118
704.621948	-33.466869	262.372711	297.113953
705.031921	-8.641074	282.137360	178.460251
705.441895	-45.883778	262.372711	213.091141
705.851746	11.212086	272.255798	121.524048
706.261536	-90.606194	232.713928	156.187378
706.671265	-43.400158	294.487000	178.460251
707.081055	-40.916641	331.521545	208.145264
707.490662	-80.664864	230.241821	309.460907
707.900330	-13.605341	240.129913	210.618118
708.309814	38.499279	292.017212	210.618118
708.719299	-21.052593	235.186081	188.356949
709.128784	-21.052593	168.404495	220.509628
709.538147	-78.179901	262.372711	257.588135
709.947510	-3.677091	193.146866	237.815689
710.356750	-35.950069	185.725220	185.882919
710.766052	-55.819035	220.352005	175.985840
711.175171	-13.605341	343.861450	148.761108
711.584290	1.286340	262.372711	200.725296
711.993347	-18.570162	257.430481	240.287628
712.402405	8.730772	259.901642	198.251770
712.811401	21.136166	198.094101	190.830872
713.220276	-65.756126	148.603302	257.588135
713.629150	-26.018044	235.186081	180.934586
714.037964	-50.851192	289.547455	151.236633
714.446777	-35.950069	193.146866	183.408798
714.855408	-152.778229	277.196716	225.454529
715.264099	-65.756126	148.603302	156.187378
715.672668	-50.851192	175.828247	200.725296
716.081177	-16.087700	245.073502	185.882919
716.489746	-40.916641	175.828247	205.672043
716.898132	-8.641074	175.828247	168.562241
717.306519	65.773827	237.658112	166.087418
717.714844	-83.150078	257.430481	222.982254
718.123108	-3.677091	198.094101	203.198715
718.531372	-63.271660	269.785156	119.047447
718.939514	-40.916641	259.901642	148.761108
719.347595	-50.851192	225.297058	208.145264
719.755676	-11.123223	198.094101	252.645554
720.163696	-18.570162	257.430481	163.612488
720.571716	-68.240692	222.824509	163.612488
720.979614	-26.018044	185.725220	121.524048
721.387451	-127.901390	198.094101	203.198715
721.795227	-35.950069	235.186081	185.882919
722.202942	8.730772	200.567627	109.139595
722.610718	-78.179901	282.137360	86.840965
723.018311	-16.087700	170.879211	99.230133
723.425903	-98.063286	217.879288	161.137466
723.833374	1.286340	222.824509	161.137466
724.240906	-40.916641	108.981689	232.871521
724.648376	-33.466869	232.713928	114.093658
725.055725	-50.851192	104.027084	138.858124
725.463013	-90.606194	170.879211	151.236633
725.870300	31.058451	262.372711	96.752480
726.277466	1.286340	108.981689	161.137466
726.684631	-55.819035	183.251083	133.906097
727.091797	23.616825	165.929657	131.429855
727.498779	-8.641074	222.824509	52.137840
727.905823	6.249354	151.078842	136.382095
728.312805	-48.367363	259.901642	156.187378
728.719666	-58.303181	163.454727	193.304428
729.126526	55.857323	165.929657	185.882919
729.533264	-1.195390	156.029465	171.036957
729.940063	-48.367363	262.372711	96.752480
730.346680	-85.635391	227.769485	121.524048
730.753357	-35.950069	138.700302	178.460251
731.159851	3.767967	207.987473	158.662338
731.566406	-63.271660	245.073502	213.091141
731.972900	-26.018044	66.855148	175.985840
732.379272	-38.433235	210.460617	151.236633
732.785645	-65.756126	254.959381	106.662354
733.191895	-90.606194	133.748260	124.000687
733.598206	-50.851192	180.776855	136.382095
734.004333	-8.641074	168.404495	96.752480
734.410522	-55.819035	151.078842	183.408798
734.816528	-16.087700	158.504700	193.304428
735.222656	-90.606194	165.929657	175.985840
735.628662	-28.500927	237.658112	161.137466
736.034546	-53.335133	205.514374	109.139595
736.440430	-80.664864	284.607391	106.662354
736.846252	-68.240692	151.078842	104.185005
737.252014	-80.664864	173.353714	158.662338
737.657715	6.249354	178.302673	119.047447
738.063354	-70.725372	175.828247	91.796989
738.468933	-21.052593	207.987473	128.953522
738.874512	11.212086	175.828247	89.319031
739.280029	-68.240692	101.549759	116.570602
739.685486	-85.635391	126.319366	138.858124
740.090881	16.174267	153.554276	198.251770
740.496216	-48.367363	173.353714	180.934586
740.901550	-45.883778	183.251083	161.137466
741.306702	-18.570162	106.504440	163.612488
741.711914	-63.271660	128.795807	101.707680
742.117004	-40.916641	185.725220	94.274712
742.522095	3.767967	210.460617	114.093658
742.927124	-115.466934	250.016571	96.752480
743.332031	73.210320	287.077484	208.145264
743.737000	13.693295	210.460617	195.778152
744.141785	-43.400158	183.251083	175.985840
744.546631	-83.150078	66.855148	148.761108
744.951355	-18.570162	133.748260	141.334061
745.356079	16.174267	148.603302	79.406288
745.760620	-23.535265	185.725220	166.087418
746.165283	-1.195390	247.545151	128.953522
746.569824	-8.641074	143.652069	131.429855
746.974243	-85.635391	143.652069	52.137840
747.378723	-21.052593	170.879211	121.524048
747.783020	-95.577576	118.889565	121.524048
748.187378	-30.983778	146.127808	151.236633
748.591614	-93.091835	200.567627	173.511581
748.995850	-108.007599	123.842819	121.524048
749.399963	21.136166	146.127808	114.093658
749.804077	-21.052593	160.979828	44.698853
750.208130	-108.007599	220.352005	153.712067
750.612122	3.767967	126.319366	86.840965
751.016052	-73.210014	193.146866	96.752480
751.419922	-35.950069	165.929657	128.953522
751.823792	-1.195390	163.454727	136.382095
752.227478	-103.035301	84.204964	109.139595
752.631226	-85.635391	146.127808	111.616608
753.034851	-33.466869	195.620590	94.274712
753.438477	-58.303181	156.029465	74.449379
753.842102	-50.851192	116.412712	126.477226
754.245544	-43.400158	203.041061	220.509628
754.648987	21.136166	84.204964	37.258934
755.052368	-33.466869	180.776855	126.477226
755.455750	1.286340	138.700302	62.055092
755.859009	-75.694908	136.224396	200.725296
756.262268	-105.521469	99.072197	141.334061
756.665405	-95.577576	210.460617	180.934586
757.068542	-70.725372	165.929657	64.534180
757.471680	-35.950069	151.078842	47.178665
757.874634	-21.052593	153.554276	151.236633
758.277588	-35.950069	178.302673	67.013168
758.680420	-53.335133	76.769966	76.927818
759.083374	3.767967	170.879211	121.524048
759.486084	-50.851192	123.842819	190.830872
759.888916	-98.063286	99.072197	52.137840
760.291504	26.097515	101.549759	116.570602
760.694214	-48.367363	66.855148	89.319031
761.096802	-26.018044	99.072197	52.137840
761.499268	8.730772	151.078842	126.477226
761.901733	-100.549232	151.078842	111.616608
762.304199	-58.303181	200.567627	57.096741
762.706543	21.136166	158.504700	-27.259605
763.108826	36.019108	96.594536	39.739056
763.511108	-75.694908	106.504440	71.970695
763.913208	-70.725372	158.504700	104.185005
764.315369	-68.240692	27.179428	106.662354
764.717529	8.730772	56.938694	136.382095
765.119568	-35.950069	37.100838	133.906097
765.521545	1.286340	94.116913	188.356949
765.923462	-112.980476	314.241486	378.557739
766.325317	-78.179901	528.675903	491.912354
766.727112	-60.787434	513.910217	440.188354
767.128845	-93.091835	459.740509	385.956665
767.530518	-103.035301	358.666260	213.091141
767.932251	-120.440453	299.426117	255.116898
768.333862	-21.052593	188.199249	218.036911
768.735413	-6.159030	292.017212	161.137466
769.136841	-11.123223	279.667084	205.672043
769.538269	11.212086	496.679321	435.260040
769.939636	6.249354	511.448914	371.158234
770.341003	-26.018044	390.731476	309.460907
770.742249	-63.271660	287.077484	235.343658
771.143433	-28.500927	235.186081	274.883850
771.544617	-16.087700	200.567627	215.564072
771.945740	-50.851192	198.094101	168.562241
772.346802	-26.018044	215.406448	138.858124
772.747803	-23.535265	183.251083	168.562241
773.148682	-21.052593	86.683006	86.840965
773.549622	-98.063286	136.224396	91.796989
773.950439	31.058451	76.769966	57.096741
774.351196	-88.120804	131.272018	69.491920
774.751892	-11.123223	178.302673	124.000687
775.152588	-26.018044	61.897060	136.382095
775.553162	-26.018044	108.981689	173.511581
775.953735	-35.950069	146.127808	141.334061
776.354309	-88.120804	64.376160	27.337551
776.754639	-30.983778	106.504440	91.796989
777.155090	-6.159030	89.161072	62.055092
777.555420	-35.950069	136.224396	34.778709
777.955750	16.174267	133.748260	89.319031
778.355896	-3.677091	108.981689	138.858124
778.756104	-6.159030	32.140408	57.096741
779.156189	13.693295	118.889565	19.895460
779.556274	-21.052593	74.291382	44.698853
779.956299	-100.549232	32.140408	94.274712
780.356201	-13.605341	148.603302	86.840965
780.756165	-58.303181	136.224396	91.796989
781.156006	-98.063286	81.726685	5.008471
781.555786	-65.756126	59.417999	47.178665
781.955505	-33.466869	54.459293	99.230133
782.355225	-26.018044	128.795807	9.971172
782.754761	-18.570162	81.726685	111.616608
783.154358	-28.500927	29.659971	104.185005
783.553894	-93.091835	96.594536	24.857048
783.953369	-26.018044	12.294271	47.178665
784.352783	43.459179	44.540775	59.575901
784.752075	-28.500927	89.161072	-27.259605
785.151367	-60.787434	136.224396	24.857048
785.550598	40.979210	165.929657	69.491920
785.949768	58.336536	69.334038	37.258934
786.348877	-23.535265	101.549759	116.570602
786.747986	36.019108	195.620590	158.662338
787.147034	-13.605341	113.935760	69.491920
787.545959	-43.400158	71.812691	37.258934
787.944885	-58.303181	116.412712	69.491920
788.343750	-38.433235	158.504700	52.137840
788.742493	-13.605341	123.842819	42.219074
789.141235	-100.549232	170.879211	37.258934
789.539917	-18.570162	165.929657	71.970695
789.938538	-83.150078	141.176239	54.617340
790.337158	-40.916641	175.828247	9.971172
790.735718	-58.303181	17.256495	-9.882271
791.134094	-28.500927	64.376160	86.840965
791.532532	-33.466869	39.580967	81.884666
791.930847	-70.725372	131.272018	81.884666
792.329224	26.097515	69.334038	14.933591
792.727417	-35.950069	108.981689	76.927818
793.125610	-48.367363	17.256495	49.658371
793.523682	36.019108	84.204964	126.477226
793.921753	-45.883778	12.294271	-19.811567
794.319824	-105.521469	47.020592	17.414511
794.717773	-45.883778	47.020592	74.449379
795.115723	-112.980476	89.161072	94.274712
795.513550	-78.179901	47.020592	29.818087
795.911377	-35.950069	24.698919	37.258934
796.309082	-16.087700	79.248306	14.933591
796.706787	-21.052593	138.700302	2.526897
797.104370	-80.664864	56.938694	62.055092
797.501953	-103.035301	44.540775	9.971172
797.899536	-11.123223	42.060989	24.857048
798.296936	-6.159030	61.897060	49.658371
798.694397	6.249354	116.412712	27.337551
799.091736	-85.635391	81.726685	64.534180
799.489014	-50.851192	131.272018	74.449379
799.886230	-65.756126	113.935760	44.698853
800.283447	-11.123223	81.726685	116.570602
800.680542	-33.466869	54.459293	59.575901
801.077637	-83.150078	32.140408	44.698853
801.474670	-33.466869	106.504440	39.739056
801.871643	-73.210014	27.179428	71.970695
802.268555	-70.725372	66.855148	81.884666
802.665405	-85.635391	27.179428	81.884666
803.062256	-45.883778	163.454727	52.137840
803.458923	6.249354	81.726685	-22.294186
803.855652	-23.535265	121.366173	-24.776911
804.252258	-48.367363	138.700302	106.662354
804.648804	-3.677091	86.683006	64.534180
805.045410	-85.635391	29.659971	193.304428
805.441833	-63.271660	39.580967	128.953522
805.838257	6.249354	69.334038	-7.400309
806.234619	-21.052593	148.603302	7.489941
806.630859	-100.549232	101.549759	44.698853
807.027100	21.136166	34.620743	106.662354
807.423279	-21.052593	-2.594633	34.778709
807.819458	-60.787434	118.889565	69.491920
808.215515	6.249354	12.294271	64.534180
808.611572	-8.641074	44.540775	27.337551
809.007507	1.286340	12.294271	-24.776911
809.403381	-63.271660	66.855148	19.895460
809.799194	-1.195390	106.504440	-9.882271
810.195068	-1.195390	64.376160	22.376307
810.590759	-35.950069	81.726685	81.884666
810.986450	-115.466934	81.726685	-4.918317
811.382080	-43.400158	66.855148	111.616608
811.777649	-18.570162	37.100838	24.857048
812.173157	-28.500927	61.897060	44.698853
812.568665	-70.725372	101.549759	-12.364470
812.964050	-73.210014	71.812691	22.376307
813.359375	-1.195390	89.161072	143.809891
813.754639	-95.577576	113.935760	119.047447
814.149841	-1.195390	74.291382	2.526897
814.545105	-75.694908	51.979916	27.337551
814.940186	-70.725372	108.981689	104.185005
815.335266	-65.756126	146.127808	7.489941
815.730347	21.136166	156.029465	106.662354
816.125244	-55.819035	108.981689	138.858124
816.520203	-26.018044	138.700302	99.230133
816.914978	-38.433235	257.430481	148.761108
817.309753	-30.983778	762.029968	523.911316
817.704468	-1.195390	2031.047241	1852.545898
818.099182	-50.851192	3193.165039	2555.372314
818.493774	33.538830	4183.815918	2993.072266
818.888367	-35.950069	5130.460938	4023.439697
819.282898	-70.725372	5581.086914	4257.068848
819.677307	-53.335133	5469.174316	3708.772949
820.071716	-95.577576	4720.355957	2952.496582
820.466003	36.019108	3673.073975	2397.005127
820.860291	-68.240692	2768.344238	2062.547363
821.254517	-3.677091	2204.514404	1603.229858
821.648743	1.286340	1712.094482	1447.921387
822.042786	-23.535265	1301.880981	1360.423706
822.436890	11.212086	962.812012	1043.609253
822.830872	-13.605341	708.062317	899.368042
823.224792	-8.641074	528.675903	582.945129
823.618774	-58.303181	252.488022	363.757629
824.012512	-11.123223	225.297058	279.824432
824.406311	43.459179	240.129913	220.509628
824.799988	-40.916641	148.603302	151.236633
825.193665	-53.335133	183.251083	166.087418
825.587280	-43.400158	163.454727	126.477226
825.980835	-21.052593	168.404495	74.449379
826.374329	-60.787434	2.368707	94.274712
826.767761	18.655268	86.683006	133.906097
827.161194	-80.664864	12.294271	44.698853
827.554443	-108.007599	47.020592	52.137840
827.947754	-26.018044	113.935760	52.137840
828.340942	-40.916641	64.376160	39.739056
828.734131	-58.303181	89.161072	54.617340
829.127136	-98.063286	96.594536	106.662354
829.520264	-18.570162	84.204964	-57.061367
829.913208	-45.883778	74.291382	59.575901
830.306152	-43.400158	37.100838	89.319031
830.699097	-11.123223	101.549759	19.895460
831.091797	-45.883778	56.938694	-2.436430
831.484619	1.286340	74.291382	19.895460
831.877319	-33.466869	89.161072	74.449379
832.270020	-33.466869	64.376160	89.319031
832.662537	-30.983778	24.698919	42.219074
833.055054	-115.466934	84.204964	37.258934
833.447510	-26.018044	81.726685	0.045218
833.839966	-73.210014	22.218170	76.927818
834.232361	-23.535265	34.620743	9.971172
834.624634	-98.063286	113.935760	2.526897
835.016907	-40.916641	9.813137	27.337551
835.409058	-35.950069	42.060989	62.055092
835.801208	-88.120804	71.812691	-19.811567
836.193298	-26.018044	74.291382	-7.400309
836.585327	-30.983778	39.580967	-4.918317
836.977295	-6.159030	14.775435	24.857048
837.369202	-21.052593	101.549759	49.658371
837.761047	-43.400158	89.161072	47.178665
838.152832	-40.916641	34.620743	-29.742542
838.544617	-28.500927	69.334038	24.857048
838.936218	63.294918	81.726685	7.489941
839.327942	-145.314056	74.291382	64.534180
839.719421	-33.466869	47.020592	9.971172
840.111023	31.058451	74.291382	54.617340
840.502380	-53.335133	4.850288	7.489941
840.893860	-6.159030	34.620743	9.971172
841.285217	-90.606194	19.737318	91.796989
841.676453	-33.466869	22.218170	101.707680
842.067749	-85.635391	-12.522700	-34.708591
842.458862	-93.091835	-52.251621	-14.846777
842.849976	50.898319	-17.487295	71.970695
843.241028	3.767967	12.294271	34.778709
843.632019	-73.210014	44.540775	19.895460
844.022949	-35.950069	44.540775	-19.811567
844.413879	-60.787434	94.116913	14.933591
844.804749	-38.433235	99.072197	39.739056
845.195496	-70.725372	37.100838	47.178665
845.586182	-6.159030	7.331765	57.096741
845.976807	-83.150078	37.100838	69.491920
846.367432	-73.210014	59.417999	24.857048
846.757996	-68.240692	-0.112843	-9.882271
847.148499	38.499279	-2.594633	22.376307
847.538879	36.019108	-32.383865	27.337551
847.929260	-30.983778	79.248306	7.489941
848.319641	-1.195390	-24.935040	-42.158657
848.709839	-98.063286	-34.866882	39.739056
849.100098	6.249354	76.769966	2.526897
849.490234	-23.535265	-0.112843	34.778709
849.880310	1.286340	-10.040493	-22.294186
850.270325	-70.725372	-5.076527	32.298519
850.660339	-38.433235	2.368707	-42.158657
851.050171	-35.950069	54.459293	14.933591
851.440125	-26.018044	-62.188099	22.376307
851.829895	-70.725372	56.938694	59.575901
852.219604	-16.087700	24.698919	-34.708591
852.609314	-6.159030	-12.522700	-34.708591
852.998901	-8.641074	-47.284084	52.137840
853.388550	-6.159030	-15.005013	-24.776911
853.778015	-85.635391	69.334038	37.258934
854.167480	8.730772	-34.866882	-27.259605
854.556885	-26.018044	-79.580978	-24.776911
854.946228	-75.694908	32.140408	86.840965
855.335571	-73.210014	69.334038	2.526897
855.724731	-35.950069	51.979916	14.933591
856.113953	-53.335133	12.294271	39.739056
856.503052	60.815777	34.620743	-9.882271
856.892151	-73.210014	71.812691	-22.294186
857.281067	-73.210014	-5.076527	12.452435
857.670105	-50.851192	29.659971	67.013168
858.058960	-70.725372	14.775435	69.491920
858.447754	3.767967	34.620743	-24.776911
858.836609	-40.916641	-10.040493	14.933591
859.225281	-55.819035	49.500305	96.752480
859.613892	-8.641074	7.331765	-42.158657
860.002502	-45.883778	32.140408	32.298519
860.391052	-6.159030	69.334038	54.617340
860.779541	-45.883778	27.179428	27.337551
861.167969	-150.290024	76.769966	64.534180
861.556335	-103.035301	74.291382	-4.918317
861.944702	43.459179	61.897060	24.857048
862.332947	3.767967	54.459293	34.778709
862.721069	-13.605341	61.897060	7.489941
863.109253	-63.271660	-54.735619	19.895460
863.497314	-21.052593	-72.126274	39.739056
863.885376	-85.635391	7.331765	-22.294186
864.273315	-18.570162	-37.350140	7.489941
864.661255	-33.466869	-22.452444	-2.436430
865.049072	-50.851192	-2.594633	29.818087
865.436890	-18.570162	2.368707	59.575901
865.824707	-80.664864	54.459293	-22.294186
866.212280	3.767967	-54.735619	29.818087
866.599915	-63.271660	-19.969816	-7.400309
866.987488	33.538830	4.850288	69.491920
867.375061	-18.570162	9.813137	-24.776911
867.762451	-1.195390	113.935760	-14.846777
868.149841	-21.052593	19.737318	0.045218
868.537170	3.767967	56.938694	-49.609539
868.924438	-6.159030	-19.969816	5.008471
869.311707	11.212086	-24.935040	-47.125763
869.698853	-95.577576	54.459293	32.298519
870.085938	-103.035301	51.979916	-12.364470
870.472961	-50.851192	-0.112843	32.298519
870.859985	-13.605341	111.458847	-14.846777
871.246887	8.730772	-34.866882	-22.294186
871.633789	28.578102	47.020592	9.971172
872.020569	-43.400158	9.813137	22.376307
872.407349	-28.500927	-27.417875	-14.846777
872.794067	-3.677091	-12.522700	76.927818
873.180725	-90.606194	39.580967	9.971172
873.567322	-68.240692	-2.594633	52.137840
873.953796	-58.303181	-12.522700	-4.918317
874.340332	-55.819035	-10.040493	19.895460
874.726624	-3.677091	89.161072	-7.400309
875.113037	-33.466869	37.100838	69.491920
875.499329	-35.950069	49.500305	-4.918317
875.885559	-93.091835	4.850288	-12.364470
876.271729	-35.950069	86.683006	-9.882271
876.657898	-11.123223	7.331765	12.452435
877.044006	18.655268	61.897060	-2.436430
877.429932	-80.664864	9.813137	39.739056
877.815918	-26.018044	-2.594633	17.414511
878.201782	-40.916641	14.775435	2.526897
878.587585	-45.883778	56.938694	-29.742542
878.973389	-78.179901	9.813137	-19.811567
879.359070	-40.916641	22.218170	2.526897
879.744751	-80.664864	-39.833500	19.895460
880.130310	-16.087700	-49.767868	-19.811567
880.515930	-1.195390	9.813137	22.376307
880.901367	13.693295	22.218170	9.971172
881.286804	13.693295	49.500305	64.534180
881.672180	13.693295	-54.735619	-12.364470
882.057434	-18.570162	-2.594633	39.739056
882.442749	-80.664864	37.100838	-27.259605
882.827942	11.212086	44.540775	-64.514153
883.213013	-83.150078	-15.005013	-17.329052
883.598145	-48.367363	-10.040493	71.970695
883.983154	-30.983778	-64.672516	39.739056
884.368042	-33.466869	76.769966	-14.846777
884.753052	-16.087700	-104.436981	69.491920
885.137817	-28.500927	7.331765	-27.259605
885.522644	33.538830	-7.558390	59.575901
885.907349	26.097515	2.368707	7.489941
886.292053	-16.087700	-49.767868	59.575901
886.676636	-125.414253	-12.522700	-12.364470
887.061157	-85.635391	42.060989	-24.776911
887.445740	-3.677091	-59.703789	-37.191841
887.830078	-16.087700	4.850288	-9.882271
888.214539	-6.159030	27.179428	-49.609539
888.598816	-35.950069	-47.284084	-37.191841
888.983093	-55.819035	64.376160	14.933591
889.367249	-28.500927	34.620743	-2.436430
889.751465	-68.240692	71.812691	-9.882271
890.135498	-43.400158	74.291382	9.971172
890.519531	-11.123223	24.698919	12.452435
890.903503	-40.916641	71.812691	34.778709
891.287415	-120.440453	-2.594633	89.319031
891.671326	-98.063286	-15.005013	14.933591
892.055054	-21.052593	51.979916	-69.483154
892.438843	-48.367363	42.060989	-44.642090
892.822510	-85.635391	-22.452444	2.526897
893.206116	-16.087700	49.500305	-34.708591
893.589661	-16.087700	-17.487295	14.933591
893.973206	-103.035301	-7.558390	-12.364470
894.356628	-45.883778	-27.417875	-12.364470
894.739990	1.286340	4.850288	-4.918317
895.123352	-40.916641	-116.869057	49.658371
895.506592	-3.677091	29.659971	-47.125763
895.889832	26.097515	42.060989	47.178665
896.272949	-26.018044	42.060989	-52.093285
896.656067	23.616825	17.256495	9.971172
897.039063	-11.123223	-47.284084	34.778709
897.422058	-26.018044	-2.594633	-27.259605
897.804993	-11.123223	-0.112843	-17.329052
898.187866	-11.123223	-24.935040	-32.225582
898.570618	43.459179	42.060989	-62.029736
898.953369	1.286340	-54.735619	-32.225582
899.336121	-103.035301	-22.452444	-39.675198
899.718689	-105.521469	-29.900818	-27.259605
900.101257	-70.725372	-12.522700	-19.811567
900.483704	-18.570162	9.813137	29.818087
900.866211	-16.087700	-62.188099	-32.225582
901.248596	-6.159030	-44.800404	-59.545567
901.630920	-33.466869	-44.800404	-22.294186
902.013184	-3.677091	-101.950867	22.376307
902.395386	-18.570162	12.294271	-71.967880
902.777588	-13.605341	-84.551277	-59.545567
903.159668	-40.916641	34.620743	101.707680
903.541687	-21.052593	39.580967	44.698853
903.923645	-33.466869	-0.112843	-2.436430
904.305603	-18.570162	32.140408	-7.400309
904.687500	-43.400158	32.140408	-12.364470
905.069275	13.693295	-44.800404	19.895460
905.451050	-30.983778	-2.594633	-29.742542
905.832642	-100.549232	-39.833500	52.137840
906.214294	33.538830	-37.350140	-84.392990
906.595825	-26.018044	61.897060	-54.577271
906.977417	-90.606194	-19.969816	9.971172
907.358826	6.249354	24.698919	27.337551
907.740234	-13.605341	-19.969816	-71.967880
908.121582	16.174267	17.256495	-2.436430
908.502869	-11.123223	-27.417875	-47.125763
908.884033	1.286340	-54.735619	-57.061367
909.265198	-13.605341	4.850288	5.008471
909.646301	-16.087700	22.218170	-14.846777
910.027344	18.655268	-49.767868	-49.609539
910.408325	-40.916641	22.218170	-19.811567
910.789246	-63.271660	-49.767868	-9.882271
911.170105	-98.063286	24.698919	-34.708591
911.550903	-58.303181	39.580967	-47.125763
911.931641	-11.123223	17.256495	-12.364470
912.312317	-33.466869	-32.383865	-29.742542
912.692932	-26.018044	-29.900818	-49.609539
913.073547	-35.950069	14.775435	-37.191841
913.453979	31.058451	-24.935040	0.045218
913.834473	-80.664864	-42.316833	7.489941
914.214783	-75.694908	19.737318	-19.811567
914.595154	-26.018044	19.737318	-12.364470
914.975464	-117.953644	44.540775	22.376307
915.355652	-137.850861	-12.522700	12.452435
915.735840	-60.787434	-37.350140	-4.918317
916.115845	-55.819035	-17.487295	-64.514153
916.495972	-50.851192	2.368707	-32.225582
916.875854	-78.179901	-0.112843	-7.400309
917.255859	-28.500927	-7.558390	67.013168
917.635620	-40.916641	-129.303680	-42.158657
918.015503	3.767967	-24.935040	-49.609539
918.395203	-55.819035	-22.452444	-29.742542
918.774902	-50.851192	22.218170	57.096741
919.154480	-30.983778	2.368707	-17.329052
919.534058	-63.271660	32.140408	-34.708591
919.913574	-16.087700	81.726685	24.857048
920.292969	-18.570162	29.659971	47.178665
920.672363	-16.087700	7.331765	5.008471
921.051636	-68.240692	39.580967	19.895460
921.430969	-50.851192	-27.417875	0.045218
921.810181	-45.883778	-49.767868	12.452435
922.189331	-58.303181	-24.935040	39.739056
922.568420	18.655268	-5.076527	64.534180
922.947388	-85.635391	24.698919	-86.878220
923.326416	-30.983778	42.060989	5.008471
923.705261	16.174267	7.331765	-69.483154
924.084106	-13.605341	-10.040493	-19.811567
924.462891	-58.303181	44.540775	-9.882271
924.841675	-40.916641	-27.417875	-24.776911
925.220337	3.767967	49.500305	-74.452721
925.598938	-60.787434	-19.969816	44.698853
925.977478	-83.150078	49.500305	-62.029736
926.355957	-33.466869	47.020592	-2.436430
926.734436	-55.819035	-17.487295	-4.918317
927.112732	-8.641074	-52.251621	19.895460
927.491089	-68.240692	-15.005013	-27.259605
927.869324	-21.052593	-17.487295	-76.937660
928.247559	-21.052593	22.218170	-104.278503
928.625671	23.616825	81.726685	-49.609539
929.003723	3.767967	-52.251621	-4.918317
929.381775	1.286340	-39.833500	-52.093285
929.759705	-63.271660	-19.969816	-42.158657
930.137634	-38.433235	-54.735619	-37.191841
930.515381	-70.725372	-37.350140	-37.191841
930.893250	-55.819035	-67.156906	-24.776911
931.270935	-48.367363	-27.417875	-32.225582
931.648560	-3.677091	-2.594633	-12.364470
932.026123	-35.950069	-19.969816	-32.225582
932.403687	11.212086	-22.452444	-89.363693
932.781250	3.767967	-52.251621	-44.642090
933.158630	-26.018044	-39.833500	42.219074
933.536011	-60.787434	14.775435	22.376307
933.913208	-50.851192	2.368707	-24.776911
934.290527	-73.210014	76.769966	52.137840
934.667664	8.730772	29.659971	14.933591
935.044800	50.898319	86.683006	9.971172
935.421814	40.979210	42.060989	37.258934
935.798889	-68.240692	32.140408	-79.422577
936.175842	6.249354	54.459293	-27.259605
936.552673	-30.983778	-94.493279	-106.764725
936.929504	-30.983778	-64.672516	27.337551
937.306274	-137.850861	-89.522133	-44.642090
937.683044	28.578102	-39.833500	-19.811567
938.059570	-85.635391	-24.935040	-44.642090
938.436218	6.249354	-27.417875	-62.029736
938.812744	-43.400158	27.179428	-62.029736
939.189148	-70.725372	-22.452444	-27.259605
939.565613	-13.605341	14.775435	-22.294186
939.941956	-8.641074	-47.284084	-24.776911
940.318237	-63.271660	12.294271	-27.259605
940.694458	-3.677091	-7.558390	57.096741
941.070557	11.212086	-37.350140	-47.125763
941.446655	-30.983778	22.218170	-12.364470
941.822693	-23.535265	-32.383865	7.489941
942.198669	-3.677091	19.737318	-69.483154
942.574646	-1.195390	-74.611115	0.045218
942.950562	-33.466869	-22.452444	-81.907730
943.326294	-30.983778	-89.522133	-116.710548
943.702026	28.578102	-64.672516	-99.306519
944.077698	-33.466869	-129.303680	37.258934
944.453369	-53.335133	14.775435	-96.820618
944.828918	-45.883778	-39.833500	-17.329052
945.204468	-33.466869	-79.580978	-12.364470
945.579834	-68.240692	-2.594633	67.013168
945.955261	-33.466869	-2.594633	-29.742542
946.330627	-78.179901	24.698919	-69.483154
946.705811	16.174267	-37.350140	-74.452721
947.081055	21.136166	-72.126274	49.658371
947.456177	-38.433235	-2.594633	24.857048
947.831238	-55.819035	-44.800404	-9.882271
948.206238	-53.335133	-89.522133	49.658371
948.581238	-45.883778	-57.219715	-14.846777
948.956116	3.767967	14.775435	-52.093285
949.330933	-78.179901	-37.350140	-19.811567
949.705811	-30.983778	17.256495	-81.907730
950.080505	-73.210014	47.020592	-79.422577
950.455139	-55.819035	-69.641533	9.971172
950.829773	-85.635391	7.331765	-22.294186
951.204346	-16.087700	89.161072	2.526897
951.578735	-73.210014	-0.112843	14.933591
951.953186	-83.150078	-59.703789	-19.811567
952.327515	3.767967	-44.800404	-19.811567
952.701843	-48.367363	2.368707	2.526897
953.076172	-33.466869	-22.452444	27.337551
953.450195	90.558159	37.100838	-34.708591
953.824341	-38.433235	-0.112843	14.933591
954.198486	-50.851192	-37.350140	19.895460
954.572449	-35.950069	4.850288	-49.609539
954.946350	21.136166	-96.979080	24.857048
955.320251	-11.123223	12.294271	2.526897
955.694092	-50.851192	-129.303680	104.185005
956.067871	-11.123223	-79.580978	-47.125763
956.441589	-11.123223	-69.641533	17.414511
956.815125	11.212086	-62.188099	5.008471
957.188721	-80.664864	-12.522700	9.971172
957.562256	1.286340	-52.251621	-14.846777
957.935730	-8.641074	-32.383865	-29.742542
958.309021	3.767967	-52.251621	27.337551
958.682373	-35.950069	-82.066147	-12.364470
959.055664	-23.535265	-69.641533	-29.742542
959.428955	-65.756126	-77.095932	-19.811567
959.802063	-65.756126	-22.452444	-22.294186
960.175110	8.730772	-79.580978	-22.294186
960.548157	-55.819035	-34.866882	-32.225582
960.921143	-105.521469	-10.040493	14.933591
961.294128	26.097515	-12.522700	-76.937660
961.666809	-145.314056	-34.866882	-9.882271
962.039612	-11.123223	-7.558390	64.534180
962.412415	-105.521469	-82.066147	-22.294186
962.785095	-63.271660	-64.672516	19.895460
963.157715	-105.521469	66.855148	-59.545567
963.530151	-73.210014	-15.005013	-47.125763
963.902649	-95.577576	12.294271	96.752480
964.275146	-50.851192	-24.935040	-4.918317
964.647522	-63.271660	-72.126274	-29.742542
965.019714	-40.916641	-44.800404	-4.918317
965.392029	-55.819035	-39.833500	-7.400309
965.764160	-60.787434	-104.436981	29.818087
966.136292	-53.335133	-77.095932	-59.545567
966.508423	-100.549232	-89.522133	-29.742542
966.880371	-53.335133	-59.703789	-59.545567
967.252319	-21.052593	-29.900818	-49.609539
967.624207	-33.466869	-7.558390	19.895460
967.996094	-3.677091	-77.095932	-37.191841
968.367737	-48.367363	-29.900818	-12.364470
968.739441	1.286340	-44.800404	42.219074
969.111084	33.538830	-15.005013	-47.125763
969.482666	8.730772	12.294271	5.008471
969.854248	-70.725372	-0.112843	-59.545567
970.225586	-80.664864	-15.005013	-69.483154
970.596985	53.377872	-72.126274	-39.675198
970.968323	-30.983778	-49.767868	-39.675198
971.339661	-23.535265	-64.672516	-39.675198
971.710754	-83.150078	-82.066147	-29.742542
972.081909	-88.120804	-39.833500	47.178665
972.453064	-18.570162	-15.005013	-24.776911
972.824097	-28.500927	37.100838	-4.918317
973.194946	-103.035301	-59.703789	-24.776911
973.565918	-23.535265	56.938694	64.534180
973.936768	55.857323	-7.558390	-71.967880
974.307556	-23.535265	24.698919	17.414511
974.678284	-105.521469	19.737318	-37.191841
975.048828	-75.694908	-67.156906	-24.776911
975.419495	-28.500927	-59.703789	-89.363693
975.790039	16.174267	-47.284084	-44.642090
976.160522	-55.819035	-104.436981	-2.436430
976.530884	-38.433235	29.659971	-52.093285
976.901245	-98.063286	-12.522700	49.658371
977.271606	-127.901390	-15.005013	-62.029736
977.641846	-60.787434	24.698919	-37.191841
978.012024	-30.983778	-24.935040	7.489941
978.382019	-16.087700	-42.316833	7.489941
978.752136	-55.819035	-12.522700	-42.158657
979.122131	-40.916641	-44.800404	-34.708591
979.492065	11.212086	-24.935040	-34.708591
979.861877	-26.018044	-22.452444	-32.225582
980.231689	-38.433235	-37.350140	-34.708591
980.601440	-100.549232	9.813137	-89.363693
980.971191	-38.433235	2.368707	42.219074
981.340820	3.767967	-64.672516	-111.737350
981.710266	-38.433235	32.140408	-64.514153
982.079773	-50.851192	-94.493279	-32.225582
982.449280	28.578102	-54.735619	-19.811567
982.818604	-55.819035	-39.833500	-66.998665
983.187866	-13.605341	9.813137	22.376307
983.557129	-40.916641	-34.866882	-44.642090
983.926331	-21.052593	-62.188099	-27.259605
984.295471	-35.950069	-39.833500	12.452435
984.664612	-16.087700	-67.156906	-9.882271
985.033569	-80.664864	-10.040493	34.778709
985.402527	6.249354	-84.551277	-27.259605
985.771362	-18.570162	-19.969816	-17.329052
986.140259	-18.570162	-10.040493	9.971172
986.508911	-38.433235	-22.452444	5.008471
986.877625	-16.087700	12.294271	24.857048
987.246277	1.286340	-49.767868	-24.776911
987.614929	-53.335133	-15.005013	-29.742542
987.983459	-53.335133	-54.735619	57.096741
988.351807	28.578102	-10.040493	-7.400309
988.720215	-63.271660	-37.350140	-52.093285
989.088623	1.286340	-131.790985	5.008471
989.456909	6.249354	-74.611115	24.857048
989.825012	-26.018044	-59.703789	0.045218
990.193115	-43.400158	-34.866882	-42.158657
990.561279	-60.787434	-17.487295	42.219074
990.929321	-16.087700	-37.350140	-74.452721
991.297302	-95.577576	-49.767868	-57.061367
991.665100	8.730772	-79.580978	14.933591
992.033020	16.174267	17.256495	-22.294186
992.400818	-53.335133	42.060989	29.818087
992.768494	26.097515	-17.487295	14.933591
993.136047	8.730772	-57.219715	-14.846777
993.503723	-13.605341	-10.040493	-86.878220
993.871277	-70.725372	-54.735619	5.008471
994.238770	-103.035301	-69.641533	-27.259605
994.606140	-70.725372	-64.672516	-101.792526
994.973450	-30.983778	-57.219715	-12.364470
995.340759	-50.851192	-47.284084	19.895460
995.708008	-45.883778	-106.923210	-42.158657
996.075195	3.767967	-52.251621	-34.708591
996.442200	-55.819035	7.331765	24.857048
996.809265	-38.433235	-10.040493	-19.811567
997.176270	26.097515	34.620743	-47.125763
997.543152	-30.983778	14.775435	-64.514153
997.910095	-43.400158	-24.935040	5.008471
998.276733	-83.150078	29.659971	2.526897
998.643494	8.730772	-19.969816	-89.363693
999.010193	-26.018044	-69.641533	-49.609539
999.376831	-80.664864	-111.895851	-66.998665
999.743286	-40.916641	4.850288	-22.294186
1000.109802	-60.787434	-5.076527	-47.125763
1000.476257	8.730772	-124.329529	-2.436430
1000.842651	-28.500927	9.813137	9.971172
1001.208923	65.773827	-17.487295	-22.294186
1001.575134	-30.983778	-52.251621	-44.642090
1001.941284	-105.521469	-52.251621	-22.294186
1002.307434	-93.091835	-74.611115	-76.937660
1002.673523	78.167336	-96.979080	-14.846777
1003.039429	-26.018044	-84.551277	-4.918317
1003.405334	-40.916641	-104.436981	22.376307
1003.771179	-70.725372	-24.935040	-17.329052
1004.137024	-115.466934	-32.383865	32.298519
1004.502808	-45.883778	17.256495	12.452435
1004.868408	-93.091835	-27.417875	-39.675198
1005.234009	-73.210014	-44.800404	62.055092
1005.599609	-115.466934	-34.866882	-69.483154
1005.965149	-55.819035	-10.040493	-47.125763
1006.330444	-70.725372	-54.735619	-19.811567
1006.695862	-3.677091	-47.284084	-62.029736
1007.061218	-28.500927	2.368707	-19.811567
1007.426453	-3.677091	-47.284084	-27.259605
1007.791626	43.459179	-7.558390	-74.452721
1008.156677	-43.400158	-32.383865	-29.742542
1008.521729	-78.179901	-49.767868	-24.776911
1008.886780	-40.916641	-29.900818	-2.436430
1009.251709	-58.303181	4.850288	81.884666
1009.616577	-105.521469	-27.417875	-54.577271
1009.981384	-127.901390	-79.580978	-129.145126
1010.346130	-35.950069	-104.436981	-27.259605
1010.710754	-40.916641	-29.900818	-76.937660
1011.075439	21.136166	-37.350140	34.778709
1011.439941	-65.756126	-47.284084	27.337551
1011.804443	-50.851192	-7.558390	-84.392990
1012.168884	11.212086	-47.284084	-19.811567
1012.533325	45.939041	-42.316833	-104.278503
1012.897522	-18.570162	-82.066147	-22.294186
1013.261780	-13.605341	-17.487295	-2.436430
1013.626038	-43.400158	-10.040493	-81.907730
1013.990112	28.578102	-22.452444	-24.776911
1014.354187	16.174267	-19.969816	-17.329052
1014.718140	-63.271660	-0.112843	9.971172
1015.082153	-11.123223	17.256495	-14.846777
1015.446045	-11.123223	-39.833500	-74.452721
1015.809937	-13.605341	-5.076527	-99.306519
1016.173523	-63.271660	-24.935040	-39.675198
1016.537170	-33.466869	-39.833500	5.008471
1016.900879	3.767967	-72.126274	-14.846777
1017.264404	-3.677091	-39.833500	-49.609539
1017.627991	-75.694908	-104.436981	-12.364470
1017.991333	-78.179901	-57.219715	17.414511
1018.354675	-88.120804	-69.641533	-37.191841
1018.718018	-58.303181	-19.969816	-34.708591
1019.081299	-53.335133	-49.767868	24.857048
1019.444397	-88.120804	-52.251621	-86.878220
1019.807495	-73.210014	-79.580978	-74.452721
1020.170593	-3.677091	2.368707	-37.191841
1020.533691	-53.335133	-0.112843	-66.998665
1020.896606	-38.433235	-12.522700	-57.061367
1021.259460	-95.577576	-17.487295	-29.742542
1021.622253	-43.400158	-54.735619	-2.436430
1021.985046	-83.150078	-94.493279	-24.776911
1022.347778	-75.694908	-32.383865	-44.642090
1022.710327	53.377872	-52.251621	-2.436430
1023.072876	26.097515	-79.580978	2.526897
1023.435364	-33.466869	-62.188099	-14.846777
1023.797852	-53.335133	-57.219715	-34.708591
1024.160278	-80.664864	-47.284084	-42.158657
1024.522461	-85.635391	-74.611115	-2.436430
1024.884766	-63.271660	-141.741119	-59.545567
1025.246948	-26.018044	-37.350140	-64.514153
1025.609131	-80.664864	-69.641533	-89.363693
1025.971069	-33.466869	-99.464981	-111.737350
1026.333130	-18.570162	-54.735619	-84.392990
1026.694946	-1.195390	-64.672516	12.452435
1027.056885	-50.851192	-34.866882	-17.329052
1027.418823	-11.123223	74.291382	-49.609539
1027.780396	8.730772	-69.641533	-32.225582
1028.142090	-3.677091	-12.522700	-66.998665
1028.503784	-135.363297	-44.800404	9.971172
1028.865479	-110.493988	-74.611115	-66.998665
1029.226807	-8.641074	-42.316833	22.376307
1029.588135	-48.367363	-34.866882	-14.846777
1029.949707	-40.916641	-17.487295	-154.022522
1030.310913	-8.641074	-17.487295	42.219074
1030.672241	-21.052593	-15.005013	-44.642090
1031.033325	-90.606194	-0.112843	-29.742542
1031.394531	-68.240692	-39.833500	-42.158657
1031.755493	-58.303181	-37.350140	24.857048
1032.116577	-45.883778	56.938694	19.895460
1032.477417	-135.363297	-89.522133	-62.029736
1032.838257	1.286340	-32.383865	-19.811567
1033.199097	11.212086	-0.112843	-7.400309
1033.559937	53.377872	-52.251621	-59.545567
1033.920654	-28.500927	-74.611115	2.526897
1034.281128	-63.271660	-19.969816	-2.436430
1034.641724	-11.123223	-17.487295	-9.882271
1035.002197	-30.983778	-99.464981	-9.882271
1035.362671	43.459179	-52.251621	-37.191841
1035.722900	3.767967	91.639038	-74.452721
1036.083252	-33.466869	69.334038	-76.937660
1036.443481	-95.577576	-59.703789	-12.364470
1036.803711	-65.756126	-77.095932	-49.609539
1037.163940	90.558159	-39.833500	-91.849274
1037.523804	11.212086	-5.076527	-17.329052
1037.883789	-93.091835	-27.417875	-76.937660
1038.243774	-26.018044	17.256495	-17.329052
1038.603638	-68.240692	-57.219715	-49.609539
1038.963257	-35.950069	-10.040493	-54.577271
1039.323120	-13.605341	-22.452444	-22.294186
1039.682861	36.019108	2.368707	5.008471
>>>>>End Processed Spectral Data<<<<<
