Jaz Data File
++++++++++++++++++++++++++++++++++++
Date: Sat Oct 24 19:43:24 2015
User: jaz
Dark Spectrum Present: Yes
Reference Spectrum Present: Yes
Processed Spectrum Present: No
Spectrometers: JAZA2310
Integration Time (usec): 3050 (JAZA2310)
Spectra Averaged: 1 (JAZA2310)
Boxcar Smoothing: 0 (JAZA2310)
Correct for Electrical Dark: Yes (JAZA2310)
Strobe/Lamp Enabled: No (JAZA2310)
Correct for Detector Non-linearity: Yes (JAZA2310)
Correct for Stray Light: No (JAZA2310)
Number of Pixels in Processed Spectrum: 2048
>>>>>Begin Processed Spectral Data<<<<<
W	D	R	S
188.301102	0.000000	0.000000	0.000000
188.764923	0.000000	0.000000	0.000000
189.228699	1479.026123	1564.311401	-99.856682
189.692459	1595.732300	1548.600952	-25.326376
190.156158	1582.266235	1541.867920	-10.431731
190.619812	1638.375000	1582.266235	-30.292053
191.083435	1629.397583	1562.067017	63.985409
191.547043	1566.555786	1591.243652	34.229801
192.010590	1613.687134	1606.954102	39.190056
192.474091	1562.067017	1588.999268	34.229801
192.937561	1636.130615	1629.397583	4.459148
193.401001	1615.931396	1613.687134	39.190056
193.864410	1575.533203	1582.266235	-0.504016
194.327759	1645.108032	1602.465332	21.827145
194.791077	1613.687134	1591.243652	-27.809229
195.254349	1580.021851	1629.397583	-35.258286
195.717575	1669.795776	1564.311401	63.985409
196.180786	1562.067017	1633.886230	9.422030
196.643951	1577.777466	1636.130615	4.459148
197.107071	1609.198364	1631.641846	-7.949612
197.570145	1580.021851	1571.044434	34.229801
198.033203	1606.954102	1613.687134	26.788572
198.496216	1566.555786	1633.886230	-25.326376
198.959167	1618.175781	1658.574097	-2.985821
199.422089	1566.555786	1575.533203	1.977686
199.884979	1573.288818	1577.777466	14.384361
200.347855	1597.976685	1611.442749	49.109463
200.810654	1622.664551	1638.375000	-22.843628
201.273422	1613.687134	1645.108032	-20.361120
201.736160	1580.021851	1705.705444	-5.467597
202.198853	1562.067017	1640.619263	-15.396150
202.661514	1557.578369	1571.044434	-79.972687
203.124130	1550.845337	1663.062744	-32.775116
203.586700	1539.623535	1624.908813	46.629868
204.049240	1564.311401	1611.442749	1.977686
204.511734	1597.976685	1597.976685	-17.878582
204.974197	1564.311401	1649.596680	-112.287773
205.436615	1571.044434	1600.221069	-55.127151
205.899002	1548.600952	1649.596680	-0.504016
206.361343	1597.976685	1651.841064	71.422127
206.823654	1571.044434	1629.397583	-32.775116
207.285919	1537.379272	1624.908813	-17.878582
207.748123	1537.379272	1488.003540	-10.431731
208.210327	1548.600952	1602.465332	66.464417
208.672485	1535.134888	1622.664551	-30.292053
209.134583	1546.356567	1667.551514	-52.643143
209.596649	1544.112305	1640.619263	-20.361120
210.058670	1588.999268	1577.777466	41.670097
210.520676	1584.510620	1611.442749	-89.913765
210.982635	1544.112305	1568.800171	-32.775116
211.444534	1541.867920	1575.533203	-37.741558
211.906403	1557.578369	1582.266235	-52.643143
212.368240	1604.709717	1633.886230	-5.467597
212.830048	1602.465332	1669.795776	-10.431731
213.291779	1535.134888	1638.375000	-12.913956
213.753494	1577.777466	1665.307129	-15.396150
214.215179	1546.356567	1613.687134	-55.127151
214.676819	1541.867920	1584.510620	-47.675434
215.138412	1485.759155	1568.800171	26.788572
215.599960	1595.732300	1692.239380	31.749449
216.061493	1555.333984	1564.311401	54.068615
216.522949	1550.845337	1613.687134	-17.878582
216.984406	1629.397583	1609.198364	21.827145
217.445801	1595.732300	1573.288818	-40.224800
217.907166	1562.067017	1559.822754	49.109463
218.368484	1609.198364	1640.619263	26.788572
218.829773	1611.442749	1611.442749	9.422030
219.291031	1550.845337	1642.863647	-79.972687
219.752228	1508.202637	1606.954102	-65.063988
220.213379	1550.845337	1663.062744	-32.775116
220.674500	1456.582642	1633.886230	-12.913956
221.135574	1505.958374	1595.732300	-67.548531
221.596634	1555.333984	1638.375000	-27.809229
222.057648	1544.112305	1645.108032	-62.579685
222.518600	1505.958374	1597.976685	-37.741558
222.979553	1593.487915	1620.420166	-5.467597
223.440430	1528.401855	1649.596680	14.384361
223.901276	1546.356567	1629.397583	-62.579685
224.362076	1557.578369	1660.818481	-72.517929
224.822845	1539.623535	1636.130615	-65.063988
225.283569	1519.424438	1640.619263	-82.457733
225.744278	1488.003540	1575.533203	-35.258286
226.204910	1591.243652	1600.221069	-25.326376
226.665512	1530.646240	1577.777466	-25.326376
227.126114	1611.442749	1615.931396	-129.695724
227.586639	1555.333984	1604.709717	-42.708286
228.047119	1559.822754	1606.954102	-15.396150
228.507568	1517.180054	1656.329712	29.269131
228.967972	1595.732300	1663.062744	-37.741558
229.428345	1624.908813	1600.221069	-70.033173
229.888687	1591.243652	1604.709717	-47.675434
230.348984	1521.668823	1613.687134	-45.191875
230.809219	1604.709717	1633.886230	-45.191875
231.269440	1575.533203	1654.085449	-30.292053
231.729614	1586.754883	1678.773193	-5.467597
232.189758	1602.465332	1665.307129	-20.361120
232.649841	1517.180054	1593.487915	-27.809229
233.109894	1571.044434	1636.130615	-12.913956
233.569901	1519.424438	1575.533203	-25.326376
234.029892	1562.067017	1642.863647	-10.431731
234.489822	1571.044434	1611.442749	-0.504016
234.949707	1591.243652	1620.420166	11.903316
235.409561	1559.822754	1584.510620	34.229801
235.869385	1591.243652	1526.157471	-45.191875
236.329163	1606.954102	1568.800171	4.459148
236.788895	1588.999268	1602.465332	-117.260880
237.248581	1566.555786	1582.266235	-60.095356
237.708237	1568.800171	1627.153198	-7.949612
238.167847	1586.754883	1564.311401	21.827145
238.627441	1537.379272	1627.153198	16.865438
239.086960	1492.492188	1627.153198	-60.095356
239.546463	1588.999268	1633.886230	-25.326376
240.005920	1595.732300	1698.972412	-99.856682
240.465332	1546.356567	1640.619263	-2.985821
240.924698	1532.890503	1611.442749	51.589088
241.384033	1582.266235	1588.999268	-5.467597
241.843338	1609.198364	1571.044434	-47.675434
242.302597	1557.578369	1683.261963	-0.504016
242.761810	1523.913086	1597.976685	-25.326376
243.220993	1517.180054	1654.085449	-35.258286
243.680115	1595.732300	1624.908813	-15.396150
244.139221	1609.198364	1622.664551	-47.675434
244.598282	1586.754883	1654.085449	4.459148
245.057297	1566.555786	1595.732300	-79.972687
245.516266	1604.709717	1631.641846	-2.985821
245.975189	1492.492188	1618.175781	-50.159237
246.434082	1586.754883	1627.153198	34.229801
246.892944	1593.487915	1640.619263	-40.224800
247.351761	1544.112305	1615.931396	-52.643143
247.810516	1512.691406	1631.641846	-42.708286
248.269272	1555.333984	1611.442749	6.940641
248.727951	1521.668823	1555.333984	-12.913956
249.186600	1555.333984	1555.333984	-52.643143
249.645218	1573.288818	1618.175781	-2.985821
250.103790	1600.221069	1586.754883	-15.396150
250.562317	1571.044434	1638.375000	-47.675434
251.020813	1600.221069	1649.596680	-0.504016
251.479279	1550.845337	1611.442749	26.788572
251.937668	1521.668823	1647.352295	71.422127
252.396057	1564.311401	1584.510620	-25.326376
252.854385	1602.465332	1636.130615	34.229801
253.312683	1553.089722	1618.175781	-97.370895
253.770920	1582.266235	1631.641846	71.422127
254.229126	1559.822754	1553.089722	6.940641
254.687302	1559.822754	1654.085449	1.977686
255.145432	1521.668823	1611.442749	-40.224800
255.603500	1474.537476	1564.311401	-25.326376
256.061584	1615.931396	1606.954102	-67.548531
256.519592	1571.044434	1620.420166	-30.292053
256.977570	1597.976685	1651.841064	-47.675434
257.435455	1512.691406	1539.623535	-20.361120
257.893372	1562.067017	1595.732300	21.827145
258.351196	1568.800171	1633.886230	-62.579685
258.808990	1566.555786	1566.555786	-42.708286
259.266754	1588.999268	1588.999268	11.903316
259.724487	1503.713989	1613.687134	-5.467597
260.182190	1541.867920	1611.442749	19.346411
260.639832	1564.311401	1689.994995	-45.191875
261.097443	1568.800171	1681.017578	-72.517929
261.554993	1642.863647	1674.284546	-17.878582
262.012512	1575.533203	1604.709717	-22.843628
262.469971	1568.800171	1595.732300	-17.878582
262.927429	1588.999268	1665.307129	-65.063988
263.384827	1548.600952	1615.931396	-5.467597
263.842194	1627.153198	1602.465332	-27.809229
264.299530	1566.555786	1571.044434	-30.292053
264.756805	1577.777466	1600.221069	-5.467597
265.214050	1562.067017	1602.465332	-5.467597
265.671234	1588.999268	1622.664551	-2.985821
266.128387	1517.180054	1571.044434	11.903316
266.585510	1631.641846	1645.108032	-89.913765
267.042572	1571.044434	1687.750610	14.384361
267.499573	1582.266235	1595.732300	-7.949612
267.956604	1609.198364	1548.600952	-7.949612
268.413574	1557.578369	1615.931396	-62.579685
268.870483	1615.931396	1656.329712	41.670097
269.327362	1544.112305	1591.243652	-10.431731
269.784180	1559.822754	1624.908813	44.150032
270.240936	1532.890503	1548.600952	-37.741558
270.697693	1568.800171	1602.465332	46.629868
271.154419	1627.153198	1640.619263	-0.504016
271.611053	1586.754883	1611.442749	21.827145
272.067688	1523.913086	1663.062744	9.422030
272.524292	1535.134888	1557.578369	4.459148
272.980835	1613.687134	1651.841064	1.977686
273.437347	1523.913086	1557.578369	-35.258286
273.893799	1555.333984	1568.800171	-62.579685
274.350250	1532.890503	1548.600952	-17.878582
274.806610	1575.533203	1575.533203	-52.643143
275.262939	1564.311401	1571.044434	6.940641
275.719238	1532.890503	1606.954102	-2.985821
276.175507	1573.288818	1609.198364	-20.361120
276.631714	1638.375000	1642.863647	-32.775116
277.087891	1544.112305	1600.221069	-5.467597
277.544067	1582.266235	1611.442749	-60.095356
278.000122	1566.555786	1613.687134	4.459148
278.456177	1566.555786	1624.908813	6.940641
278.912201	1577.777466	1622.664551	-77.487617
279.368164	1544.112305	1611.442749	54.068615
279.824097	1580.021851	1674.284546	-62.579685
280.279968	1539.623535	1685.506226	-67.548531
280.735840	1566.555786	1660.818481	11.903316
281.191620	1526.157471	1638.375000	-17.878582
281.647400	1550.845337	1660.818481	-35.258286
282.103149	1508.202637	1606.954102	-47.675434
282.558838	1532.890503	1629.397583	-67.548531
283.014465	1505.958374	1593.487915	-20.361120
283.470062	1544.112305	1640.619263	26.788572
283.925629	1667.551514	1696.728027	-2.985821
284.381134	1503.713989	1588.999268	-25.326376
284.836639	1564.311401	1638.375000	41.670097
285.292053	1553.089722	1633.886230	19.346411
285.747467	1559.822754	1651.841064	-2.985821
286.202820	1618.175781	1606.954102	-30.292053
286.658142	1559.822754	1573.288818	-10.431731
287.113434	1595.732300	1575.533203	-7.949612
287.568634	1604.709717	1604.709717	-25.326376
288.023804	1546.356567	1582.266235	21.827145
288.478973	1530.646240	1669.795776	-5.467597
288.934113	1609.198364	1647.352295	31.749449
289.389130	1557.578369	1571.044434	6.940641
289.844208	1528.401855	1654.085449	36.710045
290.299164	1555.333984	1546.356567	-7.949612
290.754089	1593.487915	1627.153198	-37.741558
291.208984	1600.221069	1613.687134	-40.224800
291.663879	1602.465332	1602.465332	-7.949612
292.118683	1553.089722	1613.687134	-32.775116
292.573456	1553.089722	1577.777466	-17.878582
293.028198	1526.157471	1613.687134	-47.675434
293.482849	1505.958374	1685.506226	-12.913956
293.937561	1501.469604	1633.886230	-10.431731
294.392151	1501.469604	1586.754883	-50.159237
294.846741	1499.225342	1620.420166	-47.675434
295.301239	1539.623535	1580.021851	-57.611134
295.755737	1557.578369	1633.886230	-32.775116
296.210175	1535.134888	1642.863647	-60.095356
296.664581	1566.555786	1649.596680	-109.801315
297.118958	1573.288818	1564.311401	-52.643143
297.573242	1499.225342	1663.062744	-52.643143
298.027557	1532.890503	1604.709717	-45.191875
298.481812	1568.800171	1582.266235	-27.809229
298.935974	1571.044434	1553.089722	-40.224800
299.390137	1517.180054	1577.777466	-35.258286
299.844238	1571.044434	1577.777466	-12.913956
300.298340	1624.908813	1591.243652	-79.972687
300.752350	1562.067017	1580.021851	-22.843628
301.206360	1553.089722	1631.641846	-50.159237
301.660278	1582.266235	1544.112305	1.977686
302.114197	1575.533203	1582.266235	-79.972687
302.568054	1586.754883	1559.822754	-50.159237
303.021881	1548.600952	1658.574097	-35.258286
303.475677	1568.800171	1624.908813	1.977686
303.929413	1559.822754	1638.375000	-52.643143
304.383118	1553.089722	1663.062744	51.589088
304.836761	1530.646240	1622.664551	26.788572
305.290375	1649.596680	1638.375000	61.506432
305.743958	1571.044434	1544.112305	-7.949612
306.197510	1606.954102	1586.754883	34.229801
306.650970	1656.329712	1595.732300	4.459148
307.104431	1622.664551	1651.841064	-47.675434
307.557800	1568.800171	1588.999268	-45.191875
308.011169	1541.867920	1577.777466	-35.258286
308.464508	1557.578369	1627.153198	-10.431731
308.917755	1586.754883	1615.931396	-52.643143
309.371063	1584.510620	1613.687134	-22.843628
309.824219	1631.641846	1654.085449	19.346411
310.277374	1584.510620	1606.954102	-2.985821
310.730499	1591.243652	1642.863647	-52.643143
311.183563	1548.600952	1640.619263	21.827145
311.636597	1562.067017	1564.311401	-27.809229
312.089569	1573.288818	1627.153198	-57.611134
312.542511	1548.600952	1620.420166	4.459148
312.995422	1597.976685	1654.085449	-22.843628
313.448273	1550.845337	1645.108032	-37.741558
313.901093	1566.555786	1591.243652	36.710045
314.353882	1544.112305	1548.600952	-20.361120
314.806580	1546.356567	1573.288818	-12.913956
315.259308	1537.379272	1588.999268	-25.326376
315.711975	1550.845337	1550.845337	-10.431731
316.164581	1586.754883	1602.465332	16.865438
316.617126	1593.487915	1705.705444	-5.467597
317.069672	1577.777466	1636.130615	-84.943016
317.522156	1526.157471	1672.040161	-55.127151
317.974579	1584.510620	1647.352295	-5.467597
318.427002	1559.822754	1642.863647	-102.342720
318.879333	1503.713989	1609.198364	-57.611134
319.331665	1597.976685	1613.687134	-77.487617
319.783936	1467.804443	1696.728027	-65.063988
320.236176	1595.732300	1631.641846	-25.326376
320.688354	1613.687134	1721.415894	-37.741558
321.140503	1566.555786	1591.243652	-42.708286
321.592651	1618.175781	1571.044434	9.422030
322.044647	1613.687134	1687.750610	56.547897
322.496704	1582.266235	1651.841064	-72.517929
322.948639	1476.781860	1669.795776	16.865438
323.400604	1606.954102	1689.994995	-30.292053
323.852509	1562.067017	1618.175781	-52.643143
324.304352	1568.800171	1638.375000	49.109463
324.756165	1532.890503	1676.528931	-77.487617
325.207916	1557.578369	1723.660156	9.422030
325.659668	1557.578369	1665.307129	-47.675434
326.111328	1559.822754	1615.931396	-27.809229
326.562988	1490.247925	1624.908813	-25.326376
327.014557	1584.510620	1611.442749	-27.809229
327.466156	1586.754883	1721.415894	26.788572
327.917664	1586.754883	1606.954102	-0.504016
328.369110	1613.687134	1600.221069	-27.809229
328.820557	1485.759155	1613.687134	-7.949612
329.271942	1591.243652	1705.705444	-134.670334
329.723297	1577.777466	1595.732300	24.307909
330.174561	1555.333984	1685.506226	-5.467597
330.625854	1566.555786	1674.284546	11.903316
331.077026	1577.777466	1618.175781	-102.342720
331.528229	1580.021851	1692.239380	19.346411
331.979370	1559.822754	1703.461060	-17.878582
332.430450	1580.021851	1714.682861	24.307909
332.881500	1555.333984	1703.461060	-37.741558
333.332489	1575.533203	1721.415894	-60.095356
333.783478	1559.822754	1672.040161	-89.913765
334.234406	1555.333984	1716.927124	-37.741558
334.685303	1548.600952	1692.239380	-32.775116
335.136078	1647.352295	1627.153198	-94.885086
335.586914	1523.913086	1739.370605	-22.843628
336.037659	1557.578369	1725.904541	-22.843628
336.488342	1532.890503	1757.325439	-27.809229
336.939026	1613.687134	1826.900269	-55.127151
337.389648	1483.514893	1732.637573	4.459148
337.840240	1539.623535	1698.972412	4.459148
338.290771	1577.777466	1808.945435	-2.985821
338.741272	1546.356567	1829.144653	-107.314964
339.191681	1483.514893	1725.904541	-22.843628
339.642120	1535.134888	1838.122070	-55.127151
340.092468	1541.867920	1797.723755	26.788572
340.542816	1550.845337	1683.261963	39.190056
340.993103	1548.600952	1770.791504	-112.287773
341.443329	1618.175781	1786.501953	54.068615
341.893555	1624.908813	1804.456787	26.788572
342.343689	1609.198364	1811.189819	-32.775116
342.793793	1532.890503	1768.547241	-32.775116
343.243866	1615.931396	1829.144653	14.384361
343.693878	1604.709717	1826.900269	11.903316
344.143890	1526.157471	1849.343750	-42.708286
344.593842	1611.442749	1831.389038	-32.775116
345.043732	1580.021851	1900.963867	-60.095356
345.493591	1593.487915	1871.787231	34.229801
345.943359	1593.487915	1820.167236	-25.326376
346.393158	1582.266235	1891.986450	-0.504016
346.842896	1470.048706	1826.900269	61.506432
347.292542	1580.021851	1894.230713	-45.191875
347.742218	1566.555786	1880.764648	-72.517929
348.191803	1631.641846	1927.895996	-47.675434
348.641357	1541.867920	1853.832520	-25.326376
349.090881	1517.180054	1903.208130	-45.191875
349.540314	1577.777466	1871.787231	4.459148
349.989777	1580.021851	1999.715210	-104.828850
350.439148	1562.067017	1840.366333	-60.095356
350.888489	1526.157471	1963.805542	-102.342720
351.337799	1597.976685	2049.090820	-37.741558
351.787048	1620.420166	2024.403076	-114.774338
352.236267	1573.288818	1961.561279	-47.675434
352.685425	1519.424438	2022.158691	-22.843628
353.134552	1519.424438	2026.647339	-12.913956
353.583649	1593.487915	2073.778809	-79.972687
354.032684	1528.401855	2040.113403	-30.292053
354.481659	1555.333984	1984.004761	63.985409
354.930634	1575.533203	2098.466553	-32.775116
355.379517	1508.202637	2062.556885	-35.258286
355.828430	1588.999268	2125.398682	-35.258286
356.277222	1627.153198	2111.932617	-45.191875
356.726013	1595.732300	2136.620361	-60.095356
357.174774	1514.935791	2154.575195	-79.972687
357.623444	1523.913086	2102.955322	-37.741558
358.072113	1582.266235	2102.955322	-77.487617
358.520721	1573.288818	2197.218018	-22.843628
358.969299	1562.067017	2170.285645	-5.467597
359.417786	1580.021851	2262.303955	-45.191875
359.866302	1575.533203	2170.285645	-7.949612
360.314697	1582.266235	2168.041260	1.977686
360.763123	1553.089722	2255.571045	1.977686
361.211456	1559.822754	2273.525879	19.346411
361.659760	1573.288818	2109.688232	-32.775116
362.108032	1541.867920	2233.127441	-10.431731
362.556244	1559.822754	2215.172607	-50.159237
363.004456	1559.822754	2163.552734	11.903316
363.452576	1564.311401	2300.458008	31.749449
363.900696	1609.198364	2374.521484	-17.878582
364.348663	1577.777466	2239.860596	1.977686
364.796722	1566.555786	2273.525879	29.269131
365.244690	1519.424438	2242.104980	103.636726
365.692596	1602.465332	2374.521484	9.422030
366.140472	1591.243652	2372.277100	-55.127151
366.588287	1537.379272	2430.630127	-82.457733
367.036102	1651.841064	2482.250244	-12.913956
367.483826	1586.754883	2428.385986	-42.708286
367.931549	1537.379272	2473.272949	-67.548531
368.379181	1510.447021	2374.521484	-17.878582
368.826843	1595.732300	2462.051025	-47.675434
369.274384	1595.732300	2392.476318	-32.775116
369.721924	1517.180054	2423.897217	1.977686
370.169403	1573.288818	2475.517334	-47.675434
370.616821	1564.311401	2549.580811	26.788572
371.064270	1508.202637	2524.892822	-67.548531
371.511566	1548.600952	2545.092041	-22.843628
371.958923	1557.578369	2515.915527	14.384361
372.406158	1559.822754	2581.001709	-52.643143
372.853424	1537.379272	2560.802490	31.749449
373.300568	1586.754883	2637.110352	4.459148
373.747711	1566.555786	2585.490234	6.940641
374.194794	1479.026123	2504.693848	-30.292053
374.641846	1541.867920	2639.354736	-20.361120
375.088898	1584.510620	2614.666748	4.459148
375.535828	1602.465332	2616.911133	-35.258286
375.982758	1559.822754	2650.576416	-62.579685
376.429596	1564.311401	2708.929443	31.749449
376.876465	1523.913086	2650.576416	-0.504016
377.323242	1627.153198	2681.997314	51.589088
377.769989	1600.221069	2735.861816	-70.033173
378.216675	1566.555786	2798.703613	-79.972687
378.663330	1496.980957	2767.282715	34.229801
379.109985	1571.044434	2735.861816	-20.361120
379.556519	1535.134888	2823.391357	-35.258286
380.003052	1658.574097	2782.993164	-17.878582
380.449524	1588.999268	2854.812256	16.865438
380.895996	1593.487915	2827.880127	24.307909
381.342377	1606.954102	2875.011475	9.422030
381.788727	1562.067017	2762.793945	-27.809229
382.235046	1535.134888	2915.409668	-79.972687
382.681274	1541.867920	2926.631348	-75.002647
383.127533	1586.754883	2951.319336	-55.127151
383.573669	1562.067017	2949.074951	-72.517929
384.019836	1588.999268	2951.319336	-45.191875
384.465912	1564.311401	2933.364502	-17.878582
384.911957	1575.533203	3101.690674	-37.741558
385.357971	1544.112305	2928.875732	-50.159237
385.803925	1555.333984	3133.111572	-0.504016
386.249847	1600.221069	2973.762695	51.589088
386.695679	1571.044434	3160.043701	-15.396150
387.141541	1539.623535	3099.446289	-20.361120
387.587311	1593.487915	3079.247070	-27.809229
388.033051	1548.600952	3222.885498	41.670097
388.478729	1575.533203	3164.532471	14.384361
388.924408	1620.420166	3180.242920	-134.670334
389.369995	1496.980957	3319.392578	-5.467597
389.815552	1553.089722	3160.043701	-22.843628
390.261078	1559.822754	3314.903809	31.749449
390.706543	1508.202637	3207.175049	-50.159237
391.152008	1501.469604	3332.858643	36.710045
391.597351	1633.886230	3341.835938	-47.675434
392.042725	1606.954102	3209.419434	-79.972687
392.487976	1539.623535	3373.256836	4.459148
392.933289	1557.578369	3438.343018	-45.191875
393.378479	1544.112305	3335.103027	-35.258286
393.823639	1582.266235	3366.523926	-2.985821
394.268768	1535.134888	3344.080322	14.384361
394.713837	1624.908813	3379.989990	26.788572
395.158905	1535.134888	3501.184814	46.629868
395.603851	1548.600952	3368.768311	63.985409
396.048798	1577.777466	3543.827393	19.346411
396.493683	1571.044434	3510.162109	-30.292053
396.938568	1602.465332	3469.763916	19.346411
397.383392	1548.600952	3460.786621	24.307909
397.828156	1600.221069	3492.207520	-47.675434
398.272888	1609.198364	3537.094482	46.629868
398.717560	1584.510620	3676.244141	41.670097
399.162201	1544.112305	3537.094482	39.190056
399.606781	1548.600952	3671.755371	-27.809229
400.051361	1580.021851	3691.954590	9.422030
400.495819	1559.822754	3613.402344	11.903316
400.940308	1588.999268	3739.085938	78.857788
401.384705	1629.397583	3759.284912	-5.467597
401.829102	1582.266235	3754.796387	51.589088
402.273438	1591.243652	3837.837158	-0.504016
402.717682	1597.976685	3833.348389	-94.885086
403.161926	1562.067017	3943.321533	-2.985821
403.606110	1654.085449	3896.190186	-12.913956
404.050293	1541.867920	3849.058838	-5.467597
404.494385	1546.356567	3844.570313	-30.292053
404.938446	1514.935791	3815.393799	39.190056
405.382477	1573.288818	3833.348389	-17.878582
405.826447	1535.134888	3945.565918	-10.431731
406.270386	1528.401855	4012.896484	41.670097
406.714233	1555.333984	4062.272217	51.589088
407.158081	1559.822754	4024.118164	-52.643143
407.601868	1566.555786	4019.629395	-7.949612
408.045624	1559.822754	4048.806152	6.940641
408.489319	1577.777466	4046.561768	91.248466
408.933014	1553.089722	4172.245117	29.269131
409.376617	1584.510620	4021.873779	123.452461
409.820190	1629.397583	4219.376465	11.903316
410.263702	1539.623535	4264.263672	36.710045
410.707184	1580.021851	4327.105469	163.064743
411.150635	1553.089722	4349.548828	1.977686
411.594025	1636.130615	4345.060059	128.405472
412.037384	1541.867920	4419.123535	120.975929
412.480682	1422.917358	4423.612305	73.900696
412.923981	1566.555786	4374.236816	172.963806
413.367126	1642.863647	4239.575684	165.539703
413.810333	1580.021851	4387.702637	155.639450
414.253479	1586.754883	4392.191406	190.283249
414.696533	1562.067017	4538.074219	239.740433
415.139587	1526.157471	4560.517578	215.016800
415.582581	1519.424438	4513.386230	205.124542
416.025543	1575.533203	4558.273438	318.789948
416.468414	1544.112305	4809.640625	316.321259
416.911285	1555.333984	4674.979492	397.740326
417.354065	1611.442749	4589.694336	501.214966
417.796875	1580.021851	4668.246582	414.997650
418.239594	1575.533203	4800.663086	439.642914
418.682281	1593.487915	4652.536133	496.291412
419.124908	1615.931396	4764.753418	587.318237
419.567505	1588.999268	4740.065430	606.983154
420.010071	1577.777466	4912.880371	629.099365
420.452545	1519.424438	4834.328125	621.728149
420.895020	1526.157471	4912.880371	710.129456
421.337372	1591.243652	4982.455078	715.037292
421.779785	1573.288818	5105.894531	837.617615
422.222107	1580.021851	4953.278809	881.693237
422.664368	1514.935791	5067.740723	979.540222
423.106628	1541.867920	5101.405762	1033.298706
423.548798	1537.379272	5150.781738	1028.413208
423.990967	1557.578369	5283.198242	1082.135132
424.433044	1548.600952	5325.840820	1221.140137
424.875092	1584.510620	5146.292969	1255.241699
425.317078	1557.578369	5206.890137	1345.292603
425.759064	1519.424438	5303.397461	1389.062744
426.200989	1575.533203	5155.270020	1537.209595
426.642853	1571.044434	5341.551270	1522.650269
427.084686	1557.578369	5449.279785	1682.655518
427.526459	1584.510620	5426.836426	1658.432983
427.968201	1597.976685	5390.926758	1808.495728
428.409912	1521.668823	5375.216309	2008.958984
428.851563	1548.600952	5646.782715	1982.419189
429.293121	1568.800171	5458.257324	1996.896484
429.734711	1530.646240	5404.393066	2148.759766
430.176239	1620.420166	5536.809570	2442.092529
430.617706	1539.623535	5622.094727	2370.051758
431.059113	1566.555786	5815.108887	2480.490967
431.500488	1508.202637	5767.977539	2715.330078
431.941833	1530.646240	5794.909668	2849.258057
432.383087	1564.311401	5799.398438	2932.867920
432.824341	1505.958374	5756.755859	3037.873291
433.265533	1602.465332	5960.991699	3354.597168
433.706726	1526.157471	5799.398438	3409.267578
434.147827	1550.845337	5866.729004	3347.464111
434.588867	1602.465332	5788.176758	3539.882080
435.029877	1624.908813	6044.032715	3710.617920
435.470825	1602.465332	5911.615723	3987.473877
435.911804	1546.356567	5996.901367	4015.829346
436.352661	1627.153198	6106.874512	4107.931152
436.793518	1568.800171	6093.408203	4280.118164
437.234283	1557.578369	6351.508301	4731.723145
437.675049	1532.890503	6165.227539	4891.235840
438.115723	1593.487915	6142.783691	4917.018555
438.556396	1564.311401	6277.444824	5160.499512
438.997040	1562.067017	6463.725586	5410.476074
439.437561	1564.311401	6555.744141	5492.130371
439.878113	1553.089722	6510.856934	5911.189453
440.318573	1604.709717	6465.970215	6029.660156
440.759033	1606.954102	6582.676270	6354.288574
441.199341	1577.777466	6661.228516	6439.941406
441.639709	1555.333984	6771.201660	6844.263672
442.079956	1557.578369	6775.690430	7247.301758
442.520264	1548.600952	6950.749512	7502.289063
442.960510	1584.510620	6993.392090	7814.026367
443.400604	1546.356567	6874.441895	7917.011230
443.840759	1580.021851	6977.681641	8204.946289
444.280762	1604.709717	7280.668945	8851.690430
444.720825	1505.958374	7013.591309	9151.253906
445.160767	1530.646240	7267.202637	9348.342773
445.600739	1514.935791	7141.519043	9667.182617
446.040558	1523.913086	7235.781738	10079.948242
446.480438	1510.447021	7143.763672	10136.247070
446.920258	1566.555786	7361.465332	10689.109375
447.359955	1609.198364	7433.284668	10758.638672
447.799713	1568.800171	7686.895996	11378.562500
448.239319	1564.311401	7610.588379	11114.769531
448.678955	1559.822754	7630.787598	11575.015625
449.118500	1546.356567	7794.625000	12331.951172
449.558014	1604.709717	7664.452637	11931.623047
449.997498	1530.646240	7796.869141	12334.172852
450.436951	1580.021851	7774.425781	12243.065430
450.876343	1548.600952	7971.928711	12735.855469
451.315674	1532.890503	7998.860840	12502.937500
451.754974	1573.288818	7976.416992	12387.483398
452.194183	1537.379272	8003.349609	12120.777344
452.633392	1602.465332	8194.119141	11911.583008
453.072510	1519.424438	8102.100586	11862.587891
453.511688	1519.424438	8337.757813	11383.029297
453.950684	1606.954102	8380.400391	11414.297852
454.389740	1568.800171	8227.784180	11074.493164
454.828735	1550.845337	8277.160156	10884.159180
455.267639	1636.130615	8313.069336	10626.283203
455.706543	1557.578369	8355.711914	10113.729492
456.145325	1530.646240	8604.834961	9919.942383
456.584137	1620.420166	8535.259766	9459.225586
457.022858	1566.555786	8497.106445	9226.043945
457.461578	1573.288818	8425.287109	8922.101563
457.900208	1582.266235	8708.075195	8662.995117
458.338867	1537.379272	8622.790039	8325.876953
458.777405	1595.732300	8705.831055	8129.594727
459.215912	1586.754883	8681.142578	7765.938477
459.654388	1517.180054	9055.949219	7736.162109
460.092773	1615.931396	8867.423828	7376.006348
460.531189	1526.157471	9015.550781	7164.494141
460.969513	1523.913086	9226.519531	6980.287598
461.407806	1577.777466	9035.750000	6816.580566
461.846008	1622.664551	9251.208008	7093.145020
462.284241	1557.578369	9426.266602	6622.625488
462.722351	1575.533203	9208.564453	6666.521973
463.160461	1622.664551	9320.782227	6384.389648
463.598541	1546.356567	9783.118164	6395.964844
464.036530	1530.646240	9911.045898	6495.468262
464.474518	1541.867920	9823.516602	6294.065430
464.912384	1591.243652	10173.634766	6245.401367
465.350281	1535.134888	10005.308594	6368.182129
465.788086	1584.510620	10245.454102	6224.539551
466.225891	1571.044434	10283.608398	6296.381836
466.663605	1510.447021	10676.369141	6152.656250
467.101318	1559.822754	10552.929688	6059.840332
467.539001	1604.709717	10662.903320	6052.876465
467.976563	1519.424438	11116.261719	5983.215332
468.414124	1541.867920	11188.081055	5899.568359
468.851593	1514.935791	11235.211914	5911.189453
469.289063	1535.134888	11803.032227	5892.596191
469.726440	1535.134888	11809.765625	5778.644531
470.163849	1575.533203	12002.779297	5664.586914
470.601135	1553.089722	12247.414063	5755.375977
471.038422	1571.044434	12510.002930	5711.153809
471.475677	1555.333984	12613.243164	5557.413086
471.912811	1539.623535	12570.600586	5599.362305
472.350006	1618.175781	13026.203125	5541.095703
472.787048	1555.333984	13295.525391	5501.458984
473.224121	1584.510620	13409.986328	5265.694336
473.661072	1584.510620	13677.064453	5258.685059
474.098053	1577.777466	13787.037109	5284.386230
474.534943	1559.822754	13899.254883	5221.290039
474.971802	1667.551514	14229.173828	5076.275391
475.408630	1550.845337	14920.433594	5324.094727
475.845367	1618.175781	14844.125977	5151.144043
476.282104	1600.221069	15288.506836	5179.207031
476.718750	1593.487915	15385.013672	5195.574707
477.155426	1575.533203	15797.974609	5312.416992
477.591949	1580.021851	15923.658203	5279.712891
478.028503	1546.356567	16224.400391	5300.738281
478.464966	1615.931396	16592.474609	5377.798828
478.901428	1564.311401	16650.826172	5394.139160
479.337860	1537.379272	17270.267578	5662.257324
479.774170	1586.754883	17427.371094	5634.308594
480.210510	1575.533203	17476.748047	5729.776367
480.646698	1627.153198	18111.898438	5918.161621
481.082947	1546.356567	18277.980469	5734.431152
481.519073	1584.510620	18688.695313	5867.023926
481.955200	1517.180054	18787.447266	5927.457520
482.391266	1597.976685	19440.552734	6099.296387
482.827301	1584.510620	19685.187500	6301.015137
483.263306	1571.044434	19994.908203	6520.910645
483.699188	1573.288818	20163.234375	6497.781250
484.135101	1573.288818	20253.007813	6553.283691
484.570923	1604.709717	20973.443359	6839.650391
485.006744	1562.067017	20818.583984	6800.428223
485.442413	1604.709717	20796.140625	7134.578613
485.878174	1535.134888	21305.607422	7311.669922
486.313782	1584.510620	21534.531250	7504.583984
486.749390	1595.732300	22012.578125	7557.355469
487.184998	1550.845337	22111.328125	7447.199707
487.620453	1604.709717	22275.166016	7713.250977
488.055939	1555.333984	22634.261719	8051.916016
488.491333	1577.777466	22627.529297	8241.465820
488.926727	1566.555786	22719.546875	8255.157227
489.362030	1591.243652	22849.718750	8419.351563
489.797302	1555.333984	23195.349609	8772.152344
490.232513	1575.533203	23489.359375	8767.605469
490.667755	1510.447021	23523.023438	8947.076172
491.102905	1609.198364	23698.083984	9327.967773
491.537964	1597.976685	24108.798828	9420.766602
491.973022	1624.908813	24559.914063	9701.059570
492.407990	1541.867920	24292.835938	9895.135742
492.842957	1620.420166	24575.625000	10372.471680
493.277832	1593.487915	24903.298828	10323.007813
493.712738	1548.600952	25302.792969	10646.479492
494.147491	1573.288818	25581.091797	10967.038086
494.582275	1544.112305	25195.064453	11210.947266
495.017029	1535.134888	25724.730469	11458.957031
495.451660	1577.777466	25863.880859	11595.092773
495.886292	1557.578369	26092.804688	11882.632813
496.320831	1573.288818	25861.636719	12358.608398
496.755402	1510.447021	26366.615234	12498.498047
497.189850	1557.578369	26788.552734	12851.103516
497.624298	1539.623535	26916.480469	13209.728516
498.058655	1564.311401	26932.191406	13375.553711
498.493042	1496.980957	26696.535156	13609.707031
498.927368	1544.112305	27197.023438	13887.734375
499.361572	1586.754883	27217.222656	14185.272461
499.795807	1580.021851	27455.125000	14616.662109
500.229919	1586.754883	27847.884766	14862.879883
500.664063	1496.980957	27785.042969	15119.886719
501.098083	1654.085449	28465.082031	15367.923828
501.532104	1593.487915	28337.154297	15916.109375
501.966064	1550.845337	28680.539063	15957.743164
502.399994	1530.646240	28471.814453	16288.497070
502.833893	1591.243652	28586.275391	16629.998047
503.267700	1505.958374	28815.199219	16833.500000
503.701477	1499.225342	29443.617188	17041.326172
504.135193	1555.333984	29567.056641	17550.865234
504.568909	1586.754883	29881.265625	17732.330078
505.002502	1548.600952	29782.513672	17940.013672
505.436127	1604.709717	29816.179688	18370.656250
505.869629	1591.243652	30224.650391	18429.677734
506.303162	1526.157471	29840.867188	19389.523438
506.736603	1505.958374	30184.253906	19127.097656
507.169983	1510.447021	30749.828125	19680.451172
507.603363	1591.243652	30581.501953	19767.964844
508.036621	1606.954102	30945.087891	19936.457031
508.469940	1588.999268	30924.888672	20464.052734
508.903107	1555.333984	31288.472656	20468.433594
509.336304	1571.044434	31286.228516	20691.859375
509.769379	1604.709717	31802.429688	20932.904297
510.202484	1604.709717	31723.876953	21084.158203
510.635529	1615.931396	32011.152344	21318.794922
511.068481	1636.130615	32226.611328	21698.394531
511.501434	1557.578369	32201.923828	22060.722656
511.934265	1580.021851	32491.443359	22324.417969
512.367126	1629.397583	32805.652344	22480.509766
512.799927	1584.510620	32435.335938	22619.062500
513.232605	1582.266235	32226.611328	22625.662109
513.665344	1593.487915	32394.937500	22755.460938
514.097961	1571.044434	33252.277344	23607.851563
514.530579	1544.112305	33214.125000	23841.630859
514.963135	1591.243652	33864.984375	23958.570313
515.395691	1611.442749	33557.511719	24258.792969
515.828064	1535.134888	34024.335938	24298.542969
516.260498	1645.108032	33950.269531	24537.130859
516.692871	1584.510620	34181.437500	24809.017578
517.125183	1566.555786	34457.492188	25384.296875
517.557373	1606.954102	34430.562500	25156.308594
517.989624	1584.510620	34942.273438	25193.929688
518.421753	1591.243652	35191.394531	25738.673828
518.853943	1541.867920	35368.699219	25541.519531
519.286072	1537.379272	35523.558594	25931.476563
519.718018	1568.800171	35337.277344	26042.318359
520.150024	1566.555786	35593.132813	25993.544922
520.581909	1553.089722	35384.410156	26419.349609
521.013855	1600.221069	35539.269531	26441.535156
521.445679	1544.112305	35871.433594	26607.962891
521.877502	1550.845337	35875.921875	26694.523438
522.309204	1550.845337	36082.402344	26838.820313
522.740906	1548.600952	36185.644531	26994.253906
523.172546	1494.736572	36001.605469	27014.242188
523.604187	1508.202637	36522.296875	27118.630859
524.035767	1483.514893	36481.898438	27614.125000
524.467224	1609.198364	36237.261719	27456.332031
524.898682	1535.134888	36235.019531	27465.218750
525.330078	1595.732300	36551.472656	27551.892578
525.761475	1571.044434	36746.730469	27491.886719
526.192749	1557.578369	37049.718750	27892.009766
526.624023	1600.221069	37045.230469	27894.232422
527.055237	1555.333984	37040.738281	27838.648438
527.486389	1672.040161	37260.687500	27940.925781
527.917542	1544.112305	37253.953125	28121.048828
528.348572	1550.845337	37328.015625	28410.201172
528.779663	1620.420166	37651.203125	28225.580078
529.210571	1633.886230	37509.808594	28574.828125
529.641541	1611.442749	37146.222656	28158.857422
530.072388	1562.067017	37669.156250	28285.634766
530.503235	1584.510620	37691.601563	28944.187500
530.934082	1609.198364	37925.011719	28612.648438
531.364746	1537.379272	37725.265625	28761.720703
531.795532	1606.954102	37653.445313	28964.214844
532.226135	1557.578369	37904.812500	28703.871094
532.656738	1537.379272	38398.570313	29097.740234
533.087280	1521.668823	38118.027344	28819.572266
533.517822	1557.578369	38515.277344	29108.867188
533.948242	1539.623535	38277.375000	29160.054688
534.378662	1555.333984	38620.761719	29186.759766
534.809082	1588.999268	38712.781250	29391.519531
535.239319	1584.510620	38477.125000	29509.480469
535.669617	1555.333984	38914.773438	29451.613281
536.099792	1613.687134	39085.343750	29787.705078
536.529968	1553.089722	39170.628906	29816.640625
536.960083	1582.266235	39338.953125	29996.931641
537.390137	1591.243652	39092.074219	29832.220703
537.820190	1571.044434	39179.605469	30279.603516
538.250183	1499.225342	39260.402344	30139.384766
538.680115	1514.935791	39390.574219	30312.990234
539.109985	1580.021851	39926.972656	30172.769531
539.539795	1523.913086	39471.371094	30393.115234
539.969543	1548.600952	39514.011719	30606.767578
540.399292	1494.736572	39547.679688	30299.634766
540.828979	1571.044434	40252.402344	31040.687500
541.258606	1530.646240	39848.421875	30922.759766
541.688171	1546.356567	40012.257813	31167.507813
542.117737	1611.442749	39933.707031	30898.283203
542.547302	1571.044434	40169.363281	30920.535156
542.976685	1575.533203	40537.437500	31478.939453
543.406128	1645.108032	40811.246094	31405.537109
543.835388	1548.600952	40481.328125	31601.269531
544.264771	1618.175781	41022.214844	31770.285156
544.693970	1597.976685	40811.246094	31761.390625
545.123230	1503.713989	40777.582031	31874.794922
545.552307	1586.754883	40838.179688	31821.429688
545.981506	1595.732300	40681.074219	31794.746094
546.410583	1604.709717	41675.320313	32092.669922
546.839539	1615.931396	41361.113281	32214.929688
547.268555	1627.153198	41163.609375	31974.845703
547.697449	1622.664551	41854.867188	32401.617188
548.126282	1618.175781	41693.277344	32697.126953
548.555054	1577.777466	41574.324219	32639.365234
548.983887	1535.134888	41242.160156	32441.617188
549.412598	1490.247925	41931.175781	33034.726563
549.841309	1606.954102	42056.859375	32641.587891
550.269958	1577.777466	41906.488281	33174.613281
550.698486	1582.266235	42389.023438	33327.792969
551.127075	1539.623535	42299.250000	33014.742188
551.555481	1492.492188	42424.933594	33505.351563
551.983948	1557.578369	42898.492188	33716.156250
552.412292	1586.754883	42557.351563	33802.679688
552.840698	1544.112305	42871.558594	33720.593750
553.268860	1508.202637	42721.187500	34004.535156
553.697205	1559.822754	42705.476563	34419.179688
554.125366	1606.954102	43378.781250	34587.648438
554.553467	1528.401855	43751.343750	34598.730469
554.981628	1568.800171	43320.429688	34552.183594
555.409607	1586.754883	43987.000000	35035.273438
555.837646	1550.845337	43989.246094	35633.339844
556.265564	1562.067017	44114.929688	35954.457031
556.693481	1571.044434	44384.250000	35854.804688
557.121338	1591.243652	44458.312500	35998.750000
557.549133	1606.954102	44985.734375	36798.265625
557.976929	1546.356567	45120.398438	36995.441406
558.404602	1559.822754	45580.488281	36847.003906
558.832275	1476.781860	45650.062500	37190.441406
559.259888	1553.089722	45450.316406	37292.402344
559.687439	1568.800171	46036.089844	37698.207031
560.114929	1546.356567	45919.386719	38455.550781
560.542419	1577.777466	46038.335938	38415.523438
560.969788	1588.999268	46184.218750	38495.582031
561.397156	1582.266235	46374.988281	38571.218750
561.824524	1588.999268	46500.671875	39061.277344
562.251770	1588.999268	46464.761719	39023.363281
562.679016	1584.510620	46579.222656	39353.707031
563.106140	1640.619263	46662.265625	39228.632813
563.533264	1620.420166	46408.652344	39079.121094
563.960327	1568.800171	46475.984375	39150.515625
564.387329	1472.293091	46417.632813	39387.222656
564.814331	1521.668823	46366.011719	39358.175781
565.241272	1575.533203	46253.792969	39472.167969
565.668213	1465.560059	46552.292969	39899.902344
566.094971	1566.555786	46655.531250	39651.160156
566.521790	1618.175781	46298.679688	39434.160156
566.948425	1595.732300	45874.500000	39982.925781
567.375183	1624.908813	46045.070313	39942.527344
567.801819	1492.492188	45690.460938	39787.796875
568.228394	1597.976685	46130.355469	40003.128906
568.654846	1562.067017	45789.214844	40052.531250
569.081421	1602.465332	45905.917969	39899.902344
569.507874	1523.913086	45710.660156	40086.226563
569.934265	1584.510620	45807.167969	39991.906250
570.360596	1548.600952	45681.484375	40769.144531
570.786865	1521.668823	45766.769531	40218.855469
571.213074	1588.999268	45501.937500	40405.703125
571.639282	1568.800171	45241.593750	40173.875000
572.065430	1584.510620	45477.250000	40552.269531
572.491516	1548.600952	45522.136719	40464.304688
572.917603	1514.935791	45501.937500	40848.343750
573.343567	1571.044434	45573.753906	41038.703125
573.769531	1595.732300	45322.386719	40389.937500
574.195435	1519.424438	45131.617188	40683.238281
574.621277	1508.202637	45486.226563	40961.601563
575.047119	1584.510620	45138.351563	41138.589844
575.472839	1510.447021	45423.382813	41172.671875
575.898560	1591.243652	45524.378906	41143.136719
576.324158	1548.600952	45353.808594	41152.222656
576.749817	1568.800171	44842.097656	41315.968750
577.175293	1615.931396	45506.425781	41243.148438
577.600830	1530.646240	45124.886719	41300.035156
578.026306	1539.623535	45044.089844	41534.851563
578.451721	1613.687134	45405.429688	42029.847656
578.877136	1505.958374	45039.601563	41891.976563
579.302429	1539.623535	45055.312500	42050.554688
579.727661	1575.533203	45237.101563	41937.898438
580.152832	1550.845337	45111.417969	41862.144531
580.578064	1602.465332	45252.812500	41594.242188
581.003113	1539.623535	44869.031250	42262.621094
581.428223	1559.822754	44871.273438	42195.687500
581.853271	1582.266235	45201.195313	42605.375000
582.278198	1566.555786	44779.257813	42589.121094
582.703125	1503.713989	44893.718750	42399.011719
583.127930	1595.732300	45614.152344	42726.304688
583.552795	1503.713989	45293.210938	42784.542969
583.977539	1550.845337	45176.507813	42969.007813
584.402283	1519.424438	45569.265625	43196.417969
584.826965	1546.356567	45131.617188	43161.183594
585.251587	1550.845337	45852.054688	43500.539063
585.676208	1541.867920	45335.855469	43673.539063
586.100647	1514.935791	45266.281250	43455.621094
586.525208	1620.420166	45699.437500	44196.746094
586.949524	1577.777466	45259.546875	43238.734375
587.373962	1541.867920	45396.453125	43947.468750
587.798218	1582.266235	45486.226563	44100.691406
588.222534	1582.266235	45528.867188	43878.226563
588.646729	1577.777466	45582.734375	44163.105469
589.070984	1532.890503	45625.375000	43747.207031
589.495117	1573.288818	45618.644531	44266.535156
589.919128	1573.288818	45638.843750	44252.085938
590.343201	1510.447021	45546.824219	43968.984375
590.767151	1530.646240	45941.828125	44420.984375
591.191101	1588.999268	45499.691406	44785.441406
591.614990	1526.157471	45558.046875	44442.753906
592.038818	1528.401855	45793.703125	44617.351563
592.462524	1523.913086	45798.191406	44399.226563
592.886292	1535.134888	45775.746094	44753.714844
593.310059	1600.221069	45733.105469	44753.714844
593.733582	1606.954102	45593.953125	44425.820313
594.157227	1557.578369	45771.257813	44348.511719
594.580750	1584.510620	45946.316406	44641.664063
595.004272	1580.021851	45676.996094	44981.304688
595.427673	1584.510620	46096.687500	44761.031250
595.851074	1521.668823	45964.273438	44831.859375
596.274353	1591.243652	45782.480469	45136.308594
596.697632	1575.533203	45973.250000	44856.316406
597.120911	1575.533203	45912.652344	45458.382813
597.544067	1564.311401	45560.289063	45104.269531
597.967224	1588.999268	46314.390625	45030.437500
598.390320	1555.333984	45804.921875	44792.769531
598.813354	1557.578369	46449.050781	45353.992188
599.236328	1499.225342	45757.792969	44675.730469
599.659241	1571.044434	46141.574219	44707.390625
600.082153	1577.777466	46045.070313	45069.792969
600.505005	1553.089722	46072.000000	45136.308594
600.927795	1541.867920	46137.085938	44826.972656
601.350525	1593.487915	45995.691406	45027.980469
601.773254	1613.687134	46040.582031	44551.781250
602.195862	1600.221069	45878.988281	44942.042969
602.618408	1555.333984	46054.046875	44143.890625
603.040955	1528.401855	46202.171875	44661.128906
603.463440	1553.089722	45979.984375	44571.195313
603.885925	1622.664551	46233.593750	44812.312500
604.308350	1526.157471	45892.453125	44476.640625
604.730652	1550.845337	46168.507813	44546.933594
605.152893	1588.999268	46107.910156	44571.195313
605.575195	1564.311401	46300.925781	44800.093750
605.997375	1535.134888	46058.535156	44627.074219
606.419495	1568.800171	46056.289063	44486.328125
606.841553	1562.067017	46058.535156	43997.679688
607.263672	1568.800171	46478.226563	43978.546875
607.685608	1571.044434	46608.402344	44280.992188
608.107605	1600.221069	46139.332031	43825.769531
608.529480	1512.691406	46366.011719	44100.691406
608.951294	1541.867920	46345.812500	43740.074219
609.373108	1557.578369	46677.976563	44559.058594
609.794800	1510.447021	46426.609375	43804.332031
610.216553	1573.288818	46754.285156	44064.726563
610.638123	1492.492188	46938.320313	43554.976563
611.059753	1492.492188	46781.214844	44117.484375
611.481262	1564.311401	47577.960938	44167.906250
611.902832	1539.623535	47032.582031	44312.324219
612.324219	1588.999268	47304.148438	44218.394531
612.745605	1580.021851	47553.273438	44314.738281
613.166931	1508.202637	47941.542969	43773.375000
613.588196	1541.867920	47719.355469	43851.988281
614.009460	1514.935791	47766.484375	43957.027344
614.430664	1575.533203	48094.160156	44019.218750
614.851807	1604.709717	48134.558594	43806.710938
615.272827	1606.954102	48145.781250	44223.203125
615.693909	1595.732300	47903.390625	43621.332031
616.114929	1604.709717	48148.023438	43208.167969
616.535889	1512.691406	47829.328125	43198.769531
616.956787	1557.578369	48320.839844	42978.363281
617.377563	1546.356567	47966.230469	42698.378906
617.798340	1588.999268	48980.679688	42765.902344
618.219055	1586.754883	48208.621094	42519.492188
618.639832	1595.732300	48439.789063	42020.644531
619.060364	1555.333984	48006.628906	42066.664063
619.481018	1546.356567	47692.421875	41368.351563
619.901611	1580.021851	47640.800781	41642.250000
620.322083	1593.487915	47878.703125	40857.394531
620.742493	1584.510620	47591.425781	40839.289063
621.162842	1577.777466	46588.203125	40376.414063
621.583191	1537.379272	47620.601563	40290.851563
622.003418	1550.845337	46862.011719	39604.152344
622.423706	1573.288818	46974.230469	39557.160156
622.843872	1642.863647	46938.320313	39179.527344
623.264038	1602.465332	46552.292969	38780.464844
623.684143	1611.442749	46532.093750	37964.515625
624.104126	1562.067017	46395.187500	37815.804688
624.524170	1609.198364	46051.800781	37589.515625
624.944031	1595.732300	45672.507813	37287.968750
625.364014	1645.108032	45946.316406	37097.367188
625.783752	1532.890503	46024.871094	36561.257813
626.203552	1559.822754	45845.320313	35910.167969
626.623230	1595.732300	45771.257813	35571.328125
627.042969	1557.578369	45189.972656	35553.613281
627.462585	1595.732300	45077.753906	35462.804688
627.882141	1597.976685	45172.015625	34625.328125
628.301697	1611.442749	44972.269531	34312.769531
628.721130	1559.822754	44803.945313	34088.812500
629.140625	1532.890503	44426.894531	33625.183594
629.559998	1532.890503	44029.644531	33154.628906
629.979309	1553.089722	44301.210938	33105.785156
630.398560	1573.288818	44072.285156	32554.937500
630.817810	1562.067017	43785.007813	32421.615234
631.237000	1530.646240	44016.175781	31979.291016
631.656067	1580.021851	43933.136719	31605.718750
632.075195	1539.623535	43666.058594	31583.476563
632.494202	1642.863647	43807.453125	31276.515625
632.913208	1566.555786	43910.691406	30909.412109
633.332092	1606.954102	43113.949219	30620.121094
633.750977	1573.288818	43594.238281	30308.539063
634.169739	1568.800171	43704.210938	30290.732422
634.588562	1602.465332	42743.632813	29656.382813
635.007263	1595.732300	43143.125000	29985.802734
635.425964	1568.800171	42543.882813	29046.552734
635.844543	1600.221069	43293.496094	29177.857422
636.263123	1548.600952	43262.074219	29013.173828
636.681641	1535.134888	43028.664063	28855.177734
637.100037	1597.976685	42963.578125	28881.878906
637.518494	1564.311401	42943.378906	27960.937500
637.936829	1544.112305	43024.175781	27665.250000
638.355164	1571.044434	42698.746094	27136.398438
638.773438	1575.533203	43293.496094	27007.578125
639.191650	1606.954102	42427.179688	26836.599609
639.609863	1571.044434	42703.234375	26927.634766
640.027893	1519.424438	42492.265625	26119.917969
640.445984	1564.311401	42454.109375	26226.365234
640.863953	1528.401855	42389.023438	25975.810547
641.281921	1550.845337	43156.589844	25583.601563
641.699829	1573.288818	42225.187500	25455.150391
642.117676	1559.822754	43006.218750	25406.437500
642.535461	1591.243652	42415.957031	24503.986328
642.953247	1613.687134	41884.046875	24802.384766
643.370972	1577.777466	42222.941406	24214.628906
643.788635	1564.311401	42460.843750	24177.093750
644.206177	1577.777466	42418.199219	23766.630859
644.623718	1505.958374	42332.914063	23607.851563
645.041260	1539.623535	42200.500000	23554.939453
645.458618	1582.266235	42148.878906	23079.031250
645.876099	1523.913086	42056.859375	23015.175781
646.293396	1584.510620	41991.773438	22742.257813
646.710693	1568.800171	41731.429688	22641.058594
647.127991	1604.709717	41985.042969	22251.884766
647.545166	1555.333984	41987.285156	21966.269531
647.962341	1602.465332	42068.082031	22093.677734
648.379333	1537.379272	42050.128906	21770.837891
648.796448	1613.687134	41560.859375	21424.087891
649.213379	1575.533203	41895.265625	21235.453125
649.630310	1597.976685	41230.941406	21174.052734
650.047180	1539.623535	41484.550781	20457.484375
650.463989	1541.867920	41623.699219	20685.287109
650.880859	1593.487915	41760.605469	20361.128906
651.297546	1640.619263	42011.972656	20297.630859
651.714233	1609.198364	41542.906250	19842.361328
652.130859	1555.333984	41740.406250	19656.386719
652.547485	1568.800171	41601.257813	19273.611328
652.963928	1541.867920	41296.027344	19072.431641
653.380432	1584.510620	41529.437500	19260.492188
653.796814	1544.112305	41480.062500	18801.316406
654.213196	1580.021851	41403.753906	18836.298828
654.629578	1571.044434	41560.859375	18670.146484
655.045837	1566.555786	41219.718750	17942.199219
655.462036	1651.841064	41049.148438	18123.638672
655.878174	1537.379272	41367.843750	18101.779297
656.294312	1609.198364	41724.695313	17529.000000
656.710327	1566.555786	41545.148438	17338.765625
657.126404	1613.687134	41210.742188	17096.007813
657.542358	1559.822754	40898.777344	17032.576172
657.958252	1573.288818	41291.539063	16745.980469
658.374084	1575.533203	41336.425781	16866.318359
658.789917	1591.243652	41475.574219	16422.054688
659.205688	1472.293091	40999.773438	16330.100586
659.621338	1463.315674	41067.101563	16001.564453
660.037048	1539.623535	40831.445313	15806.529297
660.452637	1597.976685	40777.582031	15701.306641
660.868164	1546.356567	40862.867188	15433.745117
661.283691	1566.555786	40699.027344	14926.601563
661.699158	1494.736572	40638.433594	14966.146484
662.114502	1546.356567	41255.628906	15069.379883
662.529846	1550.845337	40306.269531	14711.215820
662.945129	1571.044434	41010.992188	14706.819336
663.360413	1521.668823	40510.503906	14264.558594
663.775635	1588.999268	40555.390625	14017.813477
664.190674	1553.089722	40492.550781	14158.838867
664.605835	1575.533203	40811.246094	14033.241211
665.020813	1564.311401	40791.046875	13759.794922
665.435791	1463.315674	40541.925781	13463.941406
665.850769	1658.574097	40342.175781	13300.393555
666.265625	1517.180054	39922.484375	13116.810547
666.680420	1584.510620	40111.007813	12961.856445
667.095215	1591.243652	39994.304688	12864.396484
667.509949	1584.510620	40131.207031	12698.163086
667.924622	1559.822754	39606.031250	12334.172852
668.339233	1620.420166	39895.550781	12356.386719
668.753784	1595.732300	39834.953125	12045.139648
669.168335	1566.555786	39749.667969	11891.541016
669.582825	1609.198364	39381.597656	11719.975586
669.997192	1577.777466	39119.007813	11588.401367
670.411560	1555.333984	39267.132813	11624.091797
670.825867	1523.913086	39565.632813	11389.730469
671.240173	1564.311401	38910.281250	11396.430664
671.654358	1580.021851	39251.425781	11117.007813
672.068481	1564.311401	39150.429688	10819.168945
672.482605	1597.976685	39388.328125	10798.994141
672.896667	1519.424438	38908.039063	10538.731445
673.310669	1557.578369	39105.542969	10365.727539
673.724609	1624.908813	38777.867188	10293.771484
674.138489	1528.401855	38706.046875	10034.893555
674.552307	1523.913086	38400.816406	9813.926758
674.966064	1553.089722	38495.078125	9780.076172
675.379822	1627.153198	38324.507813	10021.374023
675.793579	1519.424438	38133.738281	9475.059570
676.207153	1519.424438	38421.015625	9499.936523
676.620789	1539.623535	38129.250000	9355.133789
677.034241	1530.646240	38019.277344	9096.835938
677.447754	1566.555786	38196.578125	8824.424805
677.861206	1564.311401	37857.683594	8697.115234
678.274597	1564.311401	38088.851563	8763.059570
678.687866	1544.112305	37577.140625	8565.134766
679.101135	1544.112305	37702.824219	8542.367188
679.514404	1559.822754	37101.335938	8458.090820
679.927551	1557.578369	37256.199219	8389.720703
680.340698	1492.492188	37772.398438	8143.298828
680.753723	1546.356567	37467.167969	8024.488770
681.166748	1470.048706	36782.640625	8019.916992
681.579712	1577.777466	37224.777344	7814.026367
681.992615	1537.379272	36984.632813	7534.414063
682.405457	1577.777466	37289.863281	7520.646484
682.818298	1530.646240	36924.035156	7460.973633
683.231018	1573.288818	36614.312500	7362.223145
683.643738	1535.134888	36917.300781	7088.541016
684.056335	1613.687134	36313.570313	7083.937012
684.468994	1562.067017	36742.242188	6989.503906
684.881531	1573.288818	36468.429688	7132.277344
685.293945	1620.420166	36315.816406	6832.729492
685.706482	1546.356567	35842.257813	6751.961914
686.118774	1613.687134	36147.488281	6691.928711
686.531128	1555.333984	35936.519531	6481.588867
686.943481	1593.487915	36284.394531	6342.709473
687.355713	1559.822754	36405.589844	6226.857422
687.767883	1521.668823	35929.785156	6083.050781
688.179932	1609.198364	35483.160156	6066.804199
688.592041	1633.886230	35460.718750	5913.514160
689.004089	1580.021851	35689.640625	5827.494141
689.416016	1568.800171	35456.230469	5792.603027
689.827881	1620.420166	35808.593750	5778.644531
690.239868	1566.555786	35092.644531	5725.120605
690.651611	1566.555786	35373.187500	5562.074707
691.063354	1571.044434	35079.179688	5643.625977
691.475098	1539.623535	34904.121094	5368.461426
691.886719	1523.913086	35162.218750	5459.475586
692.298340	1555.333984	34883.921875	5345.112793
692.709900	1559.822754	35000.625000	5144.126953
693.121460	1530.646240	34776.191406	5181.545410
693.532837	1541.867920	34834.542969	5123.073730
693.944214	1553.089722	34863.722656	4781.008301
694.355652	1559.822754	34607.867188	4893.579590
694.766846	1539.623535	34293.656250	4755.195313
695.178101	1573.288818	34596.644531	4668.326172
695.589294	1611.442749	33999.648438	4649.534668
696.000366	1544.112305	34417.093750	4649.534668
696.411438	1595.732300	33912.117188	4475.566895
696.822510	1546.356567	33939.050781	4496.739258
697.233459	1584.510620	34152.261719	4296.615234
697.644409	1591.243652	34022.089844	4369.643555
698.055298	1595.732300	33867.230469	4216.464355
698.466064	1577.777466	34174.707031	4192.879395
698.876831	1474.537476	33965.980469	4150.413574
699.287537	1501.469604	34087.175781	3774.572266
699.698181	1488.003540	33815.609375	3800.616455
700.108826	1571.044434	33676.460938	3859.783936
700.519348	1606.954102	33788.679688	3852.685547
700.929810	1602.465332	33734.812500	3838.487305
701.340271	1488.003540	33916.605469	3656.107910
701.750732	1562.067017	33487.933594	3760.363037
702.161011	1530.646240	33638.304688	3743.784180
702.571350	1566.555786	33456.515625	3528.014893
702.981567	1562.067017	33342.050781	3518.520020
703.391724	1519.424438	33115.375000	3425.900391
703.801880	1604.709717	33005.398438	3335.574707
704.211914	1568.800171	32738.322266	3342.708496
704.621948	1571.044434	33007.644531	3202.315186
705.031921	1535.134888	33007.644531	3092.718018
705.441895	1517.180054	33411.628906	3230.885742
705.851746	1577.777466	32758.521484	3078.413818
706.261536	1591.243652	32895.425781	3099.869629
706.671265	1562.067017	32435.335938	3049.799316
707.081055	1573.288818	32677.724609	3080.797852
707.490662	1530.646240	32482.466797	2978.225342
707.900330	1505.958374	32383.714844	2937.643311
708.309814	1530.646240	32130.103516	2873.154297
708.719299	1638.375000	32561.019531	2732.081543
709.128784	1550.845337	32430.845703	2720.116211
709.538147	1573.288818	32174.990234	2669.846436
709.947510	1550.845337	32183.968750	2863.596680
710.356750	1566.555786	32089.705078	2686.605957
710.766052	1573.288818	32433.091797	2660.268311
711.175171	1633.886230	31928.113281	2554.841553
711.584290	1611.442749	31750.808594	2564.430908
711.993347	1517.180054	31777.740234	2463.693848
712.402405	1620.420166	31607.169922	2300.356689
712.811401	1557.578369	31609.414063	2396.473389
713.220276	1611.442749	31764.275391	2398.875000
713.629150	1611.442749	31604.925781	2300.356689
714.037964	1597.976685	31658.791016	2355.636230
714.446777	1544.112305	31636.347656	2163.208740
714.855408	1546.356567	31409.667969	2312.376709
715.264099	1526.157471	31227.875000	2204.135010
715.672668	1546.356567	31232.363281	2252.259033
716.081177	1510.447021	31310.916016	2071.656738
716.489746	1613.687134	30660.054688	2078.887695
716.898132	1555.333984	31236.853516	2102.988037
717.306519	1532.890503	30671.277344	2107.807129
717.714844	1575.533203	30617.412109	1951.043213
718.123108	1566.555786	30956.308594	1917.240479
718.531372	1615.931396	30581.501953	1953.457153
718.939514	1575.533203	30601.701172	1929.314453
719.347595	1597.976685	30274.027344	1832.673706
719.755676	1555.333984	30711.675781	1786.729858
720.163696	1573.288818	29935.130859	1779.473022
720.571716	1629.397583	30361.556641	1784.310913
720.979614	1557.578369	30384.000000	1777.053955
721.387451	1582.266235	29822.912109	1789.148560
721.795227	1602.465332	29836.378906	1639.049683
722.202942	1584.510620	29317.933594	1578.446167
722.610718	1555.333984	29454.839844	1609.965576
723.018311	1517.180054	29596.234375	1622.085327
723.425903	1600.221069	29427.908203	1510.515259
723.833374	1566.555786	29322.421875	1520.223389
724.240906	1530.646240	29178.785156	1478.955811
724.648376	1573.288818	29035.146484	1522.650269
725.055725	1537.379272	29127.164063	1454.670898
725.463013	1638.375000	29131.652344	1435.237183
725.870300	1548.600952	28741.136719	1440.096191
726.277466	1575.533203	28768.068359	1357.453613
726.684631	1505.958374	29026.167969	1372.044067
727.091797	1535.134888	28696.250000	1372.044067
727.498779	1512.691406	28994.748047	1384.200562
727.905823	1553.089722	29106.964844	1279.590210
728.312805	1584.510620	29059.833984	1301.497559
728.719666	1604.709717	28732.158203	1255.241699
729.126526	1505.958374	28554.855469	1243.064209
729.533264	1550.845337	28754.601563	1284.459106
729.940063	1575.533203	28884.775391	1199.209229
730.346680	1559.822754	28570.566406	1230.884888
730.753357	1503.713989	28415.705078	1182.147583
731.159851	1544.112305	28411.216797	1130.938721
731.566406	1591.243652	28824.177734	1106.541138
731.972900	1544.112305	28229.423828	1148.012329
732.379272	1490.247925	28570.566406	1074.811646
732.785645	1600.221069	28806.222656	1155.328491
733.191895	1546.356567	28875.796875	1216.267090
733.598206	1573.288818	28658.095703	1191.897461
734.004333	1611.442749	28830.910156	1050.395264
734.410522	1539.623535	28545.878906	1023.527283
734.816528	1584.510620	29174.294922	1062.604492
735.222656	1559.822754	29369.554688	1025.970337
735.628662	1575.533203	28893.751953	1118.740967
736.034546	1555.333984	29291.001953	901.273621
736.440430	1550.845337	29513.193359	884.141174
736.846252	1555.333984	29517.681641	911.061584
737.252014	1636.130615	29771.292969	1072.370605
737.657715	1582.266235	29609.699219	901.273621
738.063354	1568.800171	29665.808594	959.981628
738.468933	1523.913086	29858.822266	1006.424622
738.874512	1571.044434	29800.468750	876.797241
739.280029	1584.510620	29919.419922	950.200378
739.685486	1577.777466	30422.154297	876.797241
740.090881	1613.687134	30157.320313	962.426697
740.496216	1577.777466	30056.324219	867.004517
740.901550	1537.379272	30002.460938	933.079834
741.306702	1600.221069	30051.835938	874.349121
741.711914	1530.646240	29598.478516	847.414551
742.117004	1573.288818	29551.345703	810.668579
742.522095	1559.822754	29784.757813	835.168152
742.927124	1582.266235	29501.970703	805.767578
743.332031	1535.134888	28812.955078	692.949341
743.737000	1537.379272	29400.974609	810.668579
744.141785	1597.976685	29450.351563	722.398193
744.546631	1528.401855	28954.349609	749.381897
744.951355	1580.021851	29109.208984	732.211792
745.356079	1568.800171	28880.285156	707.675354
745.760620	1571.044434	28545.878906	734.664978
746.165283	1519.424438	28357.353516	729.758545
746.569824	1496.980957	28043.144531	675.764954
746.974243	1555.333984	27987.035156	717.491089
747.378723	1580.021851	27661.603516	675.764954
747.783020	1532.890503	27672.826172	651.208130
748.187378	1548.600952	27259.865234	712.583435
748.591614	1537.379272	27681.802734	599.609497
748.995850	1571.044434	27214.978516	624.185242
749.399963	1575.533203	27102.761719	707.675354
749.804077	1557.578369	26795.285156	543.050659
750.208130	1532.890503	26990.544922	656.120300
750.612122	1537.379272	26802.019531	540.590393
751.016052	1517.180054	26328.460938	609.440918
751.419922	1562.067017	26373.347656	579.942383
751.823792	1490.247925	26357.636719	496.291412
752.227478	1609.198364	26220.732422	567.647400
752.631226	1539.623535	26270.107422	434.714661
753.034851	1577.777466	25928.966797	572.565735
753.438477	1539.623535	25794.306641	520.905701
753.842102	1559.822754	25904.279297	476.593170
754.245544	1564.311401	25367.878906	370.612183
754.648987	1615.931396	25536.205078	506.138123
755.052368	1580.021851	25073.869141	570.106628
755.455750	1606.954102	25042.449219	496.291412
755.859009	1546.356567	25343.191406	308.914337
756.262268	1595.732300	24663.154297	410.067535
756.665405	1582.266235	24609.289063	380.478333
757.068542	1627.153198	24562.158203	459.352356
757.471680	1566.555786	24701.308594	368.145538
757.874634	1559.822754	24461.162109	326.195862
758.277588	1541.867920	24306.302734	338.536804
758.680420	1553.089722	24833.724609	392.808868
759.083374	1562.067017	24158.175781	402.671539
759.486084	1555.333984	24182.863281	385.410858
759.888916	1526.157471	23927.007813	331.132507
760.291504	1546.356567	23693.595703	338.536804
760.694214	1568.800171	23931.496094	373.078918
761.096802	1566.555786	23610.554688	341.004791
761.499268	1514.935791	23799.080078	321.258667
761.901733	1550.845337	23480.380859	299.037018
762.304199	1580.021851	23255.947266	382.944641
762.706543	1550.845337	23332.253906	328.664154
763.108826	1573.288818	23260.435547	358.277496
763.511108	1586.754883	23181.882813	402.671539
763.913208	1571.044434	22919.294922	360.744690
764.315369	1537.379272	23015.800781	306.445099
764.717529	1546.356567	23083.132813	210.070801
765.119568	1492.492188	22867.673828	222.434921
765.521545	1544.112305	22910.316406	333.600739
765.923462	1654.085449	22443.492188	269.395721
766.325317	1535.134888	22445.736328	286.688141
766.727112	1501.469604	22418.804688	333.600739
767.128845	1604.709717	22412.072266	195.230698
767.530518	1577.777466	22501.845703	222.434921
767.932251	1609.198364	22225.791016	249.627136
768.333862	1597.976685	21803.853516	316.321259
768.735413	1539.623535	22131.527344	197.704346
769.136841	1566.555786	21660.214844	224.907471
769.538269	1654.085449	22001.355469	331.132507
769.939636	1618.175781	21669.191406	323.727325
770.341003	1588.999268	21716.324219	224.907471
770.742249	1492.492188	21521.064453	249.627136
771.143433	1620.420166	21467.201172	190.283249
771.544617	1566.555786	21397.625000	168.014420
771.945740	1537.379272	21460.466797	175.438217
772.346802	1622.664551	21173.191406	175.438217
772.747803	1584.510620	21193.390625	200.177765
773.148682	1566.555786	20773.697266	254.569839
773.549622	1609.198364	21229.298828	165.539703
773.950439	1559.822754	21020.574219	227.379791
774.351196	1566.555786	21148.501953	192.756958
774.751892	1510.447021	20867.958984	163.064743
775.152588	1496.980957	20980.175781	192.756958
775.553162	1566.555786	21175.435547	155.639450
775.953735	1595.732300	20695.144531	192.756958
776.354309	1571.044434	20625.570313	227.379791
776.754639	1620.420166	20551.505859	217.489517
777.155090	1595.732300	20656.990234	158.114563
777.555420	1517.180054	20318.093750	237.268463
777.955750	1548.600952	20648.013672	143.261841
778.355896	1618.175781	20261.984375	172.963806
778.756104	1591.243652	19994.908203	116.022308
779.156189	1519.424438	20024.083984	128.405472
779.556274	1584.510620	20172.210938	103.636726
779.956299	1604.709717	20127.324219	145.737595
780.356201	1562.067017	20080.193359	125.929016
780.756165	1609.198364	19864.734375	177.912659
781.156006	1553.089722	19611.123047	170.489151
781.555786	1562.067017	19714.363281	180.386993
781.955505	1532.890503	19673.964844	130.881836
782.355225	1595.732300	19626.833984	168.014420
782.754761	1501.469604	19530.326172	111.068405
783.154358	1595.732300	19682.943359	148.213242
783.553894	1483.514893	19458.507813	135.834106
783.953369	1597.976685	19238.562500	71.422127
784.352783	1559.822754	19254.271484	39.190056
784.752075	1595.732300	19469.730469	61.506432
785.151367	1575.533203	19009.638672	135.834106
785.550598	1600.221069	19092.679688	150.688660
785.949768	1580.021851	18915.375000	63.985409
786.348877	1548.600952	19146.542969	133.357956
786.747986	1582.266235	18823.357422	125.929016
787.147034	1564.311401	18892.931641	125.929016
787.545959	1517.180054	19007.394531	31.749449
787.944885	1593.487915	18578.722656	41.670097
788.343750	1550.845337	18966.996094	59.027218
788.742493	1660.818481	18935.574219	93.726349
789.141235	1544.112305	18547.302734	86.292534
789.539917	1591.243652	18610.144531	106.114098
789.938538	1566.555786	18484.460938	56.547897
790.337158	1521.668823	18264.513672	135.834106
790.735718	1537.379272	18417.128906	78.857788
791.134094	1566.555786	18392.441406	29.269131
791.532532	1539.623535	18264.513672	-45.191875
791.930847	1580.021851	18152.296875	16.865438
792.329224	1510.447021	18044.568359	-10.431731
792.727417	1595.732300	17802.177734	135.834106
793.125610	1512.691406	17900.929688	86.292534
793.523682	1602.465332	17903.173828	54.068615
793.921753	1514.935791	17856.042969	106.114098
794.319824	1559.822754	17645.074219	83.814339
794.717773	1532.890503	17449.814453	54.068615
795.115723	1593.487915	17694.449219	51.589088
795.513550	1512.691406	17627.119141	41.670097
795.911377	1514.935791	17663.029297	73.900696
796.309082	1575.533203	17705.671875	54.068615
796.706787	1544.112305	17373.507813	1.977686
797.104370	1593.487915	17321.886719	31.749449
797.501953	1627.153198	17377.996094	59.027218
797.899536	1566.555786	17205.181641	81.336052
798.296936	1609.198364	17191.714844	116.022308
798.694397	1586.754883	17303.933594	39.190056
799.091736	1593.487915	17225.380859	66.464417
799.489014	1568.800171	16944.835938	9.422030
799.886230	1535.134888	16956.058594	24.307909
800.283447	1499.225342	16994.212891	14.384361
800.680542	1535.134888	16906.683594	88.770622
801.077637	1593.487915	16834.863281	41.670097
801.474670	1564.311401	16902.193359	88.770622
801.871643	1566.555786	16769.777344	46.629868
802.268555	1541.867920	16873.017578	29.269131
802.665405	1568.800171	16951.570313	71.422127
803.062256	1604.709717	16733.867188	66.464417
803.458923	1571.044434	16502.699219	63.985409
803.855652	1555.333984	16594.718750	59.027218
804.252258	1573.288818	16583.496094	-0.504016
804.648804	1622.664551	16684.492188	-70.033173
805.045410	1586.754883	16430.880859	21.827145
805.441833	1526.157471	16460.056641	34.229801
805.838257	1562.067017	16343.351563	-0.504016
806.234619	1530.646240	16543.097656	-10.431731
806.630859	1600.221069	16480.255859	24.307909
807.027100	1541.867920	16181.757813	76.379295
807.423279	1633.886230	16154.826172	-2.985821
807.819458	1575.533203	16098.716797	31.749449
808.215515	1505.958374	16273.776367	61.506432
808.611572	1611.442749	15901.214844	11.903316
809.007507	1566.555786	15896.725586	-35.258286
809.403381	1553.089722	16049.341797	34.229801
809.799194	1479.026123	15847.349609	46.629868
810.195068	1546.356567	16047.096680	31.749449
810.590759	1550.845337	15863.060547	-17.878582
810.986450	1541.867920	15836.127930	51.589088
811.382080	1503.713989	15928.146484	83.814339
811.777649	1595.732300	15600.471680	24.307909
812.173157	1568.800171	15625.159180	113.545479
812.568665	1530.646240	15569.050781	66.464417
812.964050	1620.420166	15726.155273	-5.467597
813.359375	1526.157471	15548.851563	29.269131
813.754639	1584.510620	15548.851563	78.857788
814.149841	1512.691406	15492.743164	56.547897
814.545105	1593.487915	15503.964844	-45.191875
814.940186	1568.800171	15456.833008	-27.809229
815.335266	1604.709717	15275.041016	83.814339
815.730347	1591.243652	15328.905273	26.788572
816.125244	1555.333984	15259.330078	24.307909
816.520203	1557.578369	15099.981445	-42.708286
816.914978	1566.555786	15012.452148	-20.361120
817.309753	1566.555786	15153.845703	76.379295
817.704468	1537.379272	14987.764648	-52.643143
818.099182	1535.134888	15207.710938	14.384361
818.493774	1582.266235	15106.714844	51.589088
818.888367	1546.356567	14621.935547	46.629868
819.282898	1591.243652	15165.067383	44.150032
819.677307	1541.867920	14902.478516	-72.517929
820.071716	1573.288818	14931.655273	14.384361
820.466003	1627.153198	14619.691406	24.307909
820.860291	1618.175781	14817.193359	-62.579685
821.254517	1573.288818	14803.727539	26.788572
821.648743	1566.555786	14707.220703	-60.095356
822.042786	1591.243652	14480.541016	-32.775116
822.436890	1654.085449	14489.518555	24.307909
822.830872	1573.288818	14574.803711	-2.985821
823.224792	1544.112305	14774.550781	4.459148
823.618774	1580.021851	14410.966797	-5.467597
824.012512	1550.845337	14500.740234	-0.504016
824.406311	1588.999268	14455.853516	41.670097
824.799988	1577.777466	14345.879883	-47.675434
825.193665	1575.533203	14285.283203	26.788572
825.587280	1539.623535	14370.568359	-87.428406
825.980835	1535.134888	14105.735352	-102.342720
826.374329	1559.822754	14375.056641	73.900696
826.767761	1564.311401	14112.467773	-10.431731
827.161194	1568.800171	14446.875977	68.943329
827.554443	1606.954102	13984.540039	-10.431731
827.947754	1604.709717	14188.776367	19.346411
828.340942	1609.198364	14081.046875	-57.611134
828.734131	1532.890503	14139.400391	26.788572
829.127136	1488.003540	13751.127930	-10.431731
829.520264	1541.867920	13946.385742	14.384361
829.913208	1481.270508	13681.552734	24.307909
830.306152	1629.397583	13784.792969	-30.292053
830.699097	1588.999268	13946.385742	-67.548531
831.091797	1571.044434	13885.789063	44.150032
831.484619	1595.732300	13865.589844	51.589088
831.877319	1631.641846	13701.751953	24.307909
832.270020	1582.266235	13504.249023	-42.708286
832.662537	1499.225342	13614.222656	-7.949612
833.055054	1555.333984	13605.245117	-12.913956
833.447510	1559.822754	13362.855469	-2.985821
833.839966	1642.863647	13600.756836	78.857788
834.232361	1582.266235	13221.460938	-32.775116
834.624634	1557.578369	13627.688477	21.827145
835.016907	1555.333984	13450.384766	-17.878582
835.409058	1595.732300	13331.434570	34.229801
835.801208	1544.112305	13203.506836	-45.191875
836.193298	1541.867920	13210.239258	-82.457733
836.585327	1588.999268	12965.605469	19.346411
836.977295	1593.487915	13147.397461	16.865438
837.369202	1609.198364	13010.492188	19.346411
837.761047	1633.886230	12988.048828	-42.708286
838.152832	1553.089722	12860.121094	-50.159237
838.544617	1609.198364	12808.500977	24.307909
838.936218	1508.202637	12759.125000	36.710045
839.327942	1519.424438	12786.057617	-50.159237
839.719421	1532.890503	12779.324219	29.269131
840.111023	1575.533203	12871.342773	19.346411
840.502380	1584.510620	12637.930664	-22.843628
840.893860	1600.221069	12770.347656	-32.775116
841.285217	1568.800171	12680.573242	-45.191875
841.676453	1559.822754	12810.745117	1.977686
842.067749	1636.130615	12633.441406	-2.985821
842.458862	1573.288818	12586.310547	19.346411
842.849976	1546.356567	12763.614258	41.670097
843.241028	1559.822754	12449.405273	34.229801
843.632019	1575.533203	12761.370117	4.459148
844.022949	1544.112305	12584.066406	-12.913956
844.413879	1604.709717	12393.296875	-92.399368
844.804749	1593.487915	12518.980469	31.749449
845.195496	1537.379272	12534.690430	1.977686
845.586182	1517.180054	12240.680664	44.150032
845.976807	1555.333984	12568.355469	34.229801
846.367432	1591.243652	12177.838867	68.943329
846.757996	1595.732300	12222.725586	-32.775116
847.148499	1559.822754	12211.503906	-40.224800
847.538879	1593.487915	12090.309570	-35.258286
847.929260	1602.465332	12047.666992	-67.548531
848.319641	1564.311401	12076.843750	-15.396150
848.709839	1494.736572	11975.847656	-40.224800
849.100098	1532.890503	11809.765625	36.710045
849.490234	1535.134888	11497.800781	-22.843628
849.880310	1591.243652	11587.575195	-60.095356
850.270325	1584.510620	11764.878906	-17.878582
850.660339	1548.600952	11836.698242	-17.878582
851.050171	1470.048706	11576.353516	-89.913765
851.440125	1546.356567	11596.552734	-57.611134
851.829895	1476.781860	11513.511719	-32.775116
852.219604	1557.578369	11616.751953	-17.878582
852.609314	1568.800171	11448.425781	-27.809229
852.998901	1521.668823	11374.362305	-42.708286
853.388550	1537.379272	11347.429688	-15.396150
853.778015	1562.067017	11289.077148	78.857788
854.167480	1593.487915	11248.678711	9.422030
854.556885	1548.600952	11432.714844	-7.949612
854.946228	1517.180054	11520.245117	-97.370895
855.335571	1510.447021	11356.407227	-40.224800
855.724731	1521.668823	11500.045898	-12.913956
856.113953	1553.089722	11322.742188	-57.611134
856.503052	1512.691406	11461.891602	-35.258286
856.892151	1526.157471	11212.768555	-37.741558
857.281067	1615.931396	11403.538086	-22.843628
857.670105	1571.044434	11336.208008	-67.548531
858.058960	1539.623535	11120.750977	-67.548531
858.447754	1519.424438	11298.053711	-32.775116
858.836609	1593.487915	11028.732422	-17.878582
859.225281	1523.913086	11127.483398	-15.396150
859.613892	1526.157471	10968.134766	-70.033173
860.002502	1564.311401	11129.727539	-22.843628
860.391052	1571.044434	11055.664063	56.547897
860.779541	1530.646240	11102.795898	26.788572
861.167969	1553.089722	10900.804688	26.788572
861.556335	1591.243652	10945.691406	73.900696
861.944702	1573.288818	10725.745117	1.977686
862.332947	1548.600952	10837.962891	11.903316
862.721069	1452.093994	10750.432617	31.749449
863.109253	1555.333984	10759.410156	4.459148
863.497314	1528.401855	10954.668945	-17.878582
863.885376	1566.555786	10712.279297	-55.127151
864.273315	1627.153198	10683.102539	-50.159237
864.661255	1602.465332	10534.975586	-35.258286
865.049072	1606.954102	10478.866211	-65.063988
865.436890	1550.845337	10696.568359	-25.326376
865.824707	1521.668823	10501.310547	-12.913956
866.212280	1517.180054	10411.536133	-127.208504
866.599915	1523.913086	10400.314453	-60.095356
866.987488	1548.600952	10469.889648	-57.611134
867.375061	1523.913086	10494.577148	-20.361120
867.762451	1461.071411	10454.178711	-35.258286
868.149841	1575.533203	10425.001953	-30.292053
868.537170	1559.822754	10016.530273	-55.127151
868.924438	1586.754883	10357.671875	24.307909
869.311707	1553.089722	10285.852539	-117.260880
869.698853	1535.134888	10223.010742	-97.370895
870.085938	1602.465332	9924.512695	-27.809229
870.472961	1539.623535	9973.887695	-0.504016
870.859985	1588.999268	10054.684570	-15.396150
871.246887	1597.976685	9875.136719	-52.643143
871.633789	1546.356567	9951.444336	-40.224800
872.020569	1510.447021	9684.367188	-47.675434
872.407349	1546.356567	9774.140625	-47.675434
872.794067	1613.687134	9792.095703	66.464417
873.180725	1539.623535	9525.018555	-60.095356
873.567322	1606.954102	9715.788086	63.985409
873.953796	1604.709717	9522.773438	9.422030
874.340332	1595.732300	9448.709961	-42.708286
874.726624	1501.469604	9592.348633	-20.361120
875.113037	1496.980957	9365.668945	-5.467597
875.499329	1564.311401	9471.153320	-2.985821
875.885559	1541.867920	9349.958984	31.749449
876.271729	1595.732300	9556.439453	-32.775116
876.657898	1568.800171	9275.895508	-47.675434
877.044006	1575.533203	9231.008789	-27.809229
877.429932	1517.180054	9231.008789	24.307909
877.815918	1557.578369	9248.962891	26.788572
878.201782	1521.668823	9141.234375	4.459148
878.587585	1541.867920	9165.921875	68.943329
878.973389	1557.578369	8981.885742	-47.675434
879.359070	1470.048706	8896.600586	-40.224800
879.744751	1557.578369	8957.198242	-67.548531
880.130310	1535.134888	9062.682617	-37.741558
880.515930	1541.867920	8936.999023	-22.843628
880.901367	1501.469604	8905.578125	-57.611134
881.286804	1544.112305	8968.419922	-30.292053
881.672180	1618.175781	9058.193359	24.307909
882.057434	1577.777466	8766.427734	-72.517929
882.442749	1564.311401	8941.487305	6.940641
882.827942	1557.578369	8923.532227	-2.985821
883.213013	1528.401855	8721.541016	1.977686
883.598145	1573.288818	8528.527344	-30.292053
883.983154	1591.243652	8649.721680	-45.191875
884.368042	1640.619263	8784.382813	41.670097
884.753052	1602.465332	8681.142578	-72.517929
885.137817	1604.709717	8721.541016	-22.843628
885.522644	1584.510620	8712.563477	-62.579685
885.907349	1622.664551	8465.685547	-67.548531
886.292053	1494.736572	8604.834961	-17.878582
886.676636	1568.800171	8499.350586	-89.913765
887.061157	1496.980957	8517.305664	4.459148
887.445740	1559.822754	8575.658203	-52.643143
887.830078	1555.333984	8517.305664	-60.095356
888.214539	1568.800171	8559.948242	-20.361120
888.598816	1541.867920	8416.309570	-0.504016
888.983093	1532.890503	8443.242188	-40.224800
889.367249	1523.913086	8335.512695	-94.885086
889.751465	1591.243652	8411.821289	-107.314964
890.135498	1600.221069	8598.101563	-127.208504
890.519531	1550.845337	8272.670898	-104.828850
890.903503	1597.976685	8167.187012	-42.708286
891.287415	1606.954102	8223.295898	-77.487617
891.671326	1586.754883	8241.250000	-72.517929
892.055054	1537.379272	8200.852539	-17.878582
892.438843	1523.913086	8366.933594	31.749449
892.822510	1604.709717	8153.720703	14.384361
893.206116	1541.867920	8111.078125	63.985409
893.589661	1492.492188	8034.770508	-12.913956
893.973206	1571.044434	8164.942383	36.710045
894.356628	1548.600952	8086.390137	-32.775116
894.739990	1566.555786	8030.281738	-12.913956
895.123352	1584.510620	8122.299805	-67.548531
895.506592	1559.822754	7951.729492	-67.548531
895.889832	1564.311401	8158.209473	-84.943016
896.272949	1503.713989	7875.421387	-45.191875
896.656067	1546.356567	7884.398926	-112.287773
897.039063	1566.555786	7882.154297	-25.326376
897.422058	1490.247925	7695.873535	-5.467597
897.804993	1553.089722	7803.602539	-60.095356
898.187866	1553.089722	7817.068359	-40.224800
898.570618	1555.333984	7904.598145	-62.579685
898.953369	1514.935791	7707.095215	-17.878582
899.336121	1600.221069	7693.629395	-92.399368
899.718689	1604.709717	7594.877930	11.903316
900.101257	1577.777466	7718.316895	-25.326376
900.483704	1555.333984	7549.990723	4.459148
900.866211	1546.356567	7729.538574	21.827145
901.248596	1537.379272	7556.724121	-30.292053
901.630920	1564.311401	7466.949707	-62.579685
902.013184	1550.845337	7527.547363	19.346411
902.395386	1580.021851	7541.013672	-60.095356
902.777588	1544.112305	7188.650391	-50.159237
903.159668	1548.600952	7343.510742	19.346411
903.541687	1604.709717	7339.021973	-62.579685
903.923645	1584.510620	7197.627930	-25.326376
904.305603	1530.646240	7137.030762	-12.913956
904.687500	1593.487915	7137.030762	-72.517929
905.069275	1568.800171	7121.320313	-92.399368
905.451050	1539.623535	7291.890625	6.940641
905.832642	1539.623535	7184.162109	-67.548531
906.214294	1548.600952	7184.162109	-0.504016
906.595825	1514.935791	7226.804688	11.903316
906.977417	1588.999268	7141.519043	-15.396150
907.358826	1577.777466	7269.447266	21.827145
907.740234	1557.578369	7071.944336	-47.675434
908.121582	1586.754883	7179.673340	11.903316
908.502869	1539.623535	7069.700195	14.384361
908.884033	1575.533203	7175.184570	19.346411
909.265198	1571.044434	7098.876465	56.547897
909.646301	1597.976685	7074.188965	-67.548531
910.027344	1537.379272	7125.809082	-2.985821
910.408325	1555.333984	7195.383789	34.229801
910.789246	1580.021851	7233.537598	-32.775116
911.170105	1580.021851	7318.822754	-30.292053
911.550903	1577.777466	7352.488281	34.229801
911.931641	1564.311401	7258.225586	-0.504016
912.312317	1555.333984	7374.931641	-67.548531
912.692932	1521.668823	7446.750977	-32.775116
913.073547	1566.555786	7460.216797	-17.878582
913.453979	1555.333984	7408.596680	34.229801
913.834473	1573.288818	7594.877930	-12.913956
914.214783	1588.999268	7558.968262	-0.504016
914.595154	1550.845337	7558.968262	-65.063988
914.975464	1588.999268	7626.298828	-2.985821
915.355652	1537.379272	7819.312988	-37.741558
915.735840	1591.243652	7648.742188	-37.741558
916.115845	1571.044434	7936.019043	-30.292053
916.495972	1550.845337	7882.154297	1.977686
916.875854	1588.999268	7947.240723	-7.949612
917.255859	1586.754883	8088.634766	-2.985821
917.635620	1588.999268	7817.068359	-5.467597
918.015503	1606.954102	7900.109375	31.749449
918.395203	1541.867920	7951.729492	-5.467597
918.774902	1609.198364	8131.277344	-17.878582
919.154480	1521.668823	8016.815430	-40.224800
919.534058	1573.288818	7918.063965	-60.095356
919.913574	1580.021851	7953.973633	-32.775116
920.292969	1564.311401	7776.669922	-92.399368
920.672363	1544.112305	7870.932617	-37.741558
921.051636	1546.356567	7884.398926	-37.741558
921.430969	1550.845337	7765.448242	6.940641
921.810181	1532.890503	7689.140625	26.788572
922.189331	1521.668823	7576.922852	-30.292053
922.568420	1633.886230	7662.208496	39.190056
922.947388	1532.890503	7500.615234	6.940641
923.326416	1523.913086	7527.547363	19.346411
923.705261	1667.551514	7356.977051	-45.191875
924.084106	1541.867920	7347.999512	-37.741558
924.462891	1474.537476	7240.270508	-75.002647
924.841675	1571.044434	7029.301758	16.865438
925.220337	1566.555786	7235.781738	-55.127151
925.598938	1546.356567	7051.745117	-0.504016
925.977478	1593.487915	6831.799316	-35.258286
926.355957	1535.134888	6831.799316	4.459148
926.734436	1530.646240	6834.043457	-62.579685
927.112732	1488.003540	6676.938965	31.749449
927.491089	1514.935791	6663.472656	-0.504016
927.869324	1597.976685	6535.544922	-2.985821
928.247559	1586.754883	6611.853027	39.190056
928.625671	1588.999268	6342.530762	-99.856682
929.003723	1580.021851	6281.933594	-82.457733
929.381775	1508.202637	6198.892578	68.943329
929.759705	1530.646240	6228.069336	-22.843628
930.137634	1580.021851	6145.028320	-70.033173
930.515381	1541.867920	6124.829102	-84.943016
930.893250	1593.487915	5815.108887	-67.548531
931.270935	1595.732300	5911.615723	-15.396150
931.648560	1557.578369	5649.026855	-30.292053
932.026123	1530.646240	5601.895508	-0.504016
932.403687	1514.935791	5595.162598	-15.396150
932.781250	1629.397583	5530.076660	-25.326376
933.158630	1559.822754	5507.632813	-17.878582
933.536011	1593.487915	5399.904297	-75.002647
933.913208	1577.777466	5289.931152	63.985409
934.290527	1591.243652	5227.089355	-52.643143
934.667664	1577.777466	5222.600586	-37.741558
935.044800	1474.537476	4948.790039	-27.809229
935.421814	1597.976685	4854.527344	-37.741558
935.798889	1541.867920	4654.780273	-30.292053
936.175842	1535.134888	4596.427246	-37.741558
936.552673	1595.732300	4481.965332	54.068615
936.929504	1566.555786	4329.349609	46.629868
937.306274	1557.578369	4304.661621	-27.809229
937.683044	1571.044434	4212.643555	31.749449
938.059570	1530.646240	4098.181641	-45.191875
938.436218	1544.112305	3941.077148	-60.095356
938.812744	1577.777466	3911.900635	14.384361
939.189148	1564.311401	3759.284912	-32.775116
939.565613	1530.646240	3665.022217	-65.063988
939.941956	1519.424438	3552.804932	-12.913956
940.318237	1510.447021	3537.094482	-124.721413
940.694458	1571.044434	3492.207520	31.749449
941.070557	1651.841064	3402.433350	-109.801315
941.446655	1537.379272	3431.610107	-79.972687
941.822693	1535.134888	3263.283691	-10.431731
942.198669	1584.510620	3263.283691	-10.431731
942.574646	1620.420166	3278.994141	-40.224800
942.950562	1559.822754	3209.419434	-99.856682
943.326294	1514.935791	3124.134033	-55.127151
943.702026	1582.266235	3303.682129	-37.741558
944.077698	1535.134888	3227.374268	-47.675434
944.453369	1535.134888	3061.292480	-94.885086
944.828918	1541.867920	3139.844482	-50.159237
945.204468	1541.867920	3110.667969	-40.224800
945.579834	1573.288818	3202.686279	-42.708286
945.955261	1564.311401	3088.224609	-65.063988
946.330627	1602.465332	3101.690674	9.422030
946.705811	1557.578369	3108.423584	16.865438
947.081055	1566.555786	3160.043701	-37.741558
947.456177	1604.709717	3148.822021	-77.487617
947.831238	1606.954102	3283.482910	-0.504016
948.206238	1568.800171	3193.708984	-17.878582
948.581238	1580.021851	3258.795166	-77.487617
948.956116	1517.180054	3225.129883	-5.467597
949.330933	1555.333984	3189.220215	-104.828850
949.705811	1505.958374	3276.750000	-27.809229
950.080505	1548.600952	3294.704590	-10.431731
950.455139	1557.578369	3240.840332	-109.801315
950.829773	1577.777466	3247.573242	-30.292053
951.204346	1546.356567	3395.700439	-77.487617
951.578735	1550.845337	3323.881348	-109.801315
951.953186	1562.067017	3339.591553	-32.775116
952.327515	1600.221069	3375.501221	9.422030
952.701843	1631.641846	3281.238525	19.346411
953.076172	1620.420166	3377.745605	21.827145
953.450195	1548.600952	3501.184814	-40.224800
953.824341	1559.822754	3346.324707	-70.033173
954.198486	1548.600952	3420.388184	-5.467597
954.572449	1564.311401	3514.650879	-40.224800
954.946350	1580.021851	3406.922119	9.422030
955.320251	1539.623535	3350.813477	-45.191875
955.694092	1591.243652	3436.098633	-79.972687
956.067871	1557.578369	3375.501221	19.346411
956.441589	1595.732300	3519.139648	-52.643143
956.815125	1537.379272	3507.917969	41.670097
957.188721	1548.600952	3386.722900	-65.063988
957.562256	1624.908813	3494.451660	-55.127151
957.935730	1595.732300	3501.184814	-7.949612
958.309021	1564.311401	3642.578857	-52.643143
958.682373	1541.867920	3530.361328	-45.191875
959.055664	1546.356567	3447.320313	-52.643143
959.428955	1523.913086	3472.008301	-35.258286
959.802063	1604.709717	3532.605713	-124.721413
960.175110	1535.134888	3519.139648	-20.361120
960.548157	1611.442749	3400.189209	-109.801315
960.921143	1593.487915	3492.207520	-5.467597
961.294128	1562.067017	3564.026611	-52.643143
961.666809	1609.198364	3436.098633	-77.487617
962.039612	1591.243652	3496.696045	-32.775116
962.412415	1541.867920	3433.854248	9.422030
962.785095	1512.691406	3503.429199	-65.063988
963.157715	1586.754883	3384.478760	-42.708286
963.530151	1593.487915	3550.560547	26.788572
963.902649	1582.266235	3393.456055	11.903316
964.275146	1532.890503	3532.605713	-65.063988
964.647522	1544.112305	3422.632568	-65.063988
965.019714	1602.465332	3537.094482	-52.643143
965.392029	1600.221069	3485.474365	-50.159237
965.764160	1575.533203	3388.967285	36.710045
966.136292	1593.487915	3454.053467	-35.258286
966.508423	1597.976685	3433.854248	34.229801
966.880371	1559.822754	3346.324707	4.459148
967.252319	1530.646240	3514.650879	-87.428406
967.624207	1530.646240	3501.184814	56.547897
967.996094	1597.976685	3420.388184	-94.885086
968.367737	1566.555786	3400.189209	-2.985821
968.739441	1445.360962	3319.392578	1.977686
969.111084	1595.732300	3400.189209	-55.127151
969.482666	1562.067017	3274.505615	-17.878582
969.854248	1562.067017	3328.369873	-45.191875
970.225586	1573.288818	3400.189209	-7.949612
970.596985	1544.112305	3436.098633	-77.487617
970.968323	1544.112305	3312.659424	-17.878582
971.339661	1519.424438	3346.324707	-0.504016
971.710754	1537.379272	3350.813477	-25.326376
972.081909	1535.134888	3326.125488	-112.287773
972.453064	1566.555786	3400.189209	-75.002647
972.824097	1521.668823	3305.926514	-75.002647
973.194946	1557.578369	3382.234375	-27.809229
973.565918	1539.623535	3373.256836	-32.775116
973.936768	1546.356567	3393.456055	-27.809229
974.307556	1613.687134	3220.641113	-12.913956
974.678284	1476.781860	3213.908203	-132.183044
975.048828	1553.089722	3204.930664	29.269131
975.419495	1591.243652	3294.704590	-12.913956
975.790039	1586.754883	3236.351563	-45.191875
976.160522	1512.691406	3258.795166	-17.878582
976.530884	1517.180054	3243.084717	-30.292053
976.901245	1544.112305	3198.197754	-32.775116
977.271606	1519.424438	3189.220215	-2.985821
977.641846	1584.510620	3151.066406	-67.548531
978.012024	1514.935791	3148.822021	-22.843628
978.382019	1595.732300	3137.600342	-32.775116
978.752136	1541.867920	3180.242920	-17.878582
979.122131	1566.555786	3276.750000	-32.775116
979.492065	1568.800171	3151.066406	-87.428406
979.861877	1582.266235	3151.066406	1.977686
980.231689	1544.112305	3094.957520	34.229801
980.601440	1593.487915	3166.776855	-77.487617
980.971191	1597.976685	3148.822021	-79.972687
981.340820	1564.311401	3103.935059	14.384361
981.710266	1557.578369	2984.984375	-15.396150
982.079773	1562.067017	3072.514160	-60.095356
982.449280	1483.514893	3032.115723	-37.741558
982.818604	1548.600952	3018.649658	-25.326376
983.187866	1555.333984	3036.604492	-60.095356
983.557129	1564.311401	3020.894043	-0.504016
983.926331	1606.954102	2955.807861	-10.431731
984.295471	1595.732300	3054.559326	-40.224800
984.664612	1537.379272	2989.473145	-75.002647
985.033569	1627.153198	2915.409668	4.459148
985.402527	1539.623535	2946.830566	19.346411
985.771362	1633.886230	2958.052246	-112.287773
986.140259	1571.044434	2717.906982	4.459148
986.508911	1649.596680	2946.830566	-45.191875
986.877625	1559.822754	2899.699219	26.788572
987.246277	1532.890503	2949.074951	-35.258286
987.614929	1470.048706	2852.567871	-25.326376
987.983459	1577.777466	2807.680908	-82.457733
988.351807	1568.800171	2803.192139	-25.326376
988.720215	1508.202637	2886.233154	11.903316
989.088623	1604.709717	2879.500000	-60.095356
989.456909	1602.465332	2872.767090	29.269131
989.825012	1517.180054	2762.793945	-52.643143
990.193115	1559.822754	2843.590576	-42.708286
990.561279	1530.646240	2767.282715	-87.428406
990.929321	1526.157471	2765.038330	-62.579685
991.297302	1562.067017	2704.440918	-52.643143
991.665100	1586.754883	2756.060791	-25.326376
992.033020	1562.067017	2787.481689	-17.878582
992.400818	1532.890503	2742.594727	-65.063988
992.768494	1577.777466	2863.789551	26.788572
993.136047	1593.487915	2726.884277	-72.517929
993.503723	1537.379272	2729.128662	-109.801315
993.871277	1550.845337	2868.278320	-62.579685
994.238770	1577.777466	2614.666748	21.827145
994.606140	1559.822754	2679.752930	-22.843628
994.973450	1633.886230	2744.839111	-75.002647
995.340759	1555.333984	2704.440918	-37.741558
995.708008	1595.732300	2699.952148	36.710045
996.075195	1566.555786	2668.531250	-45.191875
996.442200	1539.623535	2679.752930	-119.747665
996.809265	1575.533203	2614.666748	-2.985821
997.176270	1611.442749	2675.264404	-7.949612
997.543152	1573.288818	2563.046875	-42.708286
997.910095	1562.067017	2623.644287	-22.843628
998.276733	1597.976685	2641.599121	-107.314964
998.643494	1573.288818	2572.024170	-50.159237
999.010193	1595.732300	2639.354736	11.903316
999.376831	1586.754883	2536.114746	-52.643143
999.743286	1548.600952	2572.024170	61.506432
1000.109802	1530.646240	2547.336426	31.749449
1000.476257	1564.311401	2511.426758	-10.431731
1000.842651	1580.021851	2569.779785	29.269131
1001.208923	1584.510620	2529.381592	14.384361
1001.575134	1519.424438	2408.186768	-62.579685
1001.941284	1595.732300	2509.182373	-2.985821
1002.307434	1526.157471	2482.250244	-62.579685
1002.673523	1537.379272	2473.272949	-72.517929
1003.039429	1584.510620	2446.340576	4.459148
1003.405334	1618.175781	2468.784180	-84.943016
1003.771179	1555.333984	2381.254639	-52.643143
1004.137024	1582.266235	2482.250244	-27.809229
1004.502808	1535.134888	2399.209229	1.977686
1004.868408	1573.288818	2446.340576	-42.708286
1005.234009	1606.954102	2439.607666	-45.191875
1005.599609	1566.555786	2412.675537	-77.487617
1005.965149	1546.356567	2374.521484	-47.675434
1006.330444	1566.555786	2349.833740	11.903316
1006.695862	1532.890503	2329.634521	-15.396150
1007.061218	1571.044434	2282.503174	-52.643143
1007.426453	1544.112305	2376.765869	-89.913765
1007.791626	1611.442749	2390.231934	-7.949612
1008.156677	1467.804443	2334.123291	-0.504016
1008.521729	1586.754883	2367.788330	56.547897
1008.886780	1546.356567	2340.856201	4.459148
1009.251709	1564.311401	2316.168457	-52.643143
1009.616577	1593.487915	2300.458008	-20.361120
1009.981384	1622.664551	2291.480469	-40.224800
1010.346130	1566.555786	2392.476318	-52.643143
1010.710754	1584.510620	2320.657227	4.459148
1011.075439	1588.999268	2300.458008	-15.396150
1011.439941	1539.623535	2325.145752	-12.913956
1011.804443	1555.333984	2327.390137	11.903316
1012.168884	1651.841064	2313.924072	-67.548531
1012.533325	1532.890503	2282.503174	19.346411
1012.897522	1519.424438	2239.860596	-22.843628
1013.261780	1530.646240	2170.285645	-47.675434
1013.626038	1562.067017	2260.059570	-7.949612
1013.990112	1571.044434	2242.104980	-45.191875
1014.354187	1548.600952	2159.063965	-30.292053
1014.718140	1602.465332	2177.018799	6.940641
1015.082153	1573.288818	2208.439697	-42.708286
1015.446045	1615.931396	2206.195313	-35.258286
1015.809937	1571.044434	2235.371826	-42.708286
1016.173523	1555.333984	2145.597900	-70.033173
1016.537170	1505.958374	2203.950928	-27.809229
1016.900879	1559.822754	2192.729248	24.307909
1017.264404	1595.732300	2105.199707	-70.033173
1017.627991	1615.931396	2127.643066	-35.258286
1017.991333	1575.533203	2145.597900	-37.741558
1018.354675	1564.311401	2127.643066	-17.878582
1018.718018	1539.623535	2114.177002	-37.741558
1019.081299	1494.736572	2116.421387	-10.431731
1019.444397	1591.243652	2127.643066	-47.675434
1019.807495	1597.976685	2134.376221	-75.002647
1020.170593	1602.465332	2194.973633	-35.258286
1020.533691	1521.668823	2152.330811	-27.809229
1020.896606	1568.800171	2102.955322	-57.611134
1021.259460	1580.021851	2098.466553	14.384361
1021.622253	1600.221069	2087.244873	-87.428406
1021.985046	1514.935791	2051.335205	-60.095356
1022.347778	1588.999268	2058.068359	41.670097
1022.710327	1535.134888	2203.950928	-27.809229
1023.072876	1609.198364	2010.936890	-5.467597
1023.435364	1568.800171	2055.823975	-75.002647
1023.797852	1604.709717	2085.000488	-70.033173
1024.160278	1523.913086	2049.090820	-37.741558
1024.522461	1613.687134	2085.000488	-89.913765
1024.884766	1591.243652	2125.398682	-30.292053
1025.246948	1636.130615	2071.534424	-22.843628
1025.609131	1571.044434	2127.643066	-37.741558
1025.971069	1566.555786	2046.846558	-0.504016
1026.333130	1611.442749	1984.004761	-67.548531
1026.694946	1588.999268	2015.425659	-72.517929
1027.056885	1620.420166	1939.117798	-52.643143
1027.418823	1622.664551	1999.715210	-75.002647
1027.780396	1514.935791	1995.226440	-2.985821
1028.142090	1568.800171	1957.072510	-27.809229
1028.503784	1562.067017	2001.959473	-60.095356
1028.865479	1557.578369	2017.669922	-47.675434
1029.226807	1602.465332	1907.696899	-25.326376
1029.588135	1546.356567	1959.316895	-37.741558
1029.949707	1546.356567	1939.117798	-47.675434
1030.310913	1593.487915	1918.918579	-27.809229
1030.672241	1591.243652	1945.850830	-65.063988
1031.033325	1557.578369	1936.873413	-77.487617
1031.394531	1604.709717	1923.407349	-25.326376
1031.755493	1514.935791	1932.384644	11.903316
1032.116577	1514.935791	1907.696899	-79.972687
1032.477417	1544.112305	1880.764648	-57.611134
1032.838257	1514.935791	1988.493408	39.190056
1033.199097	1546.356567	2004.203857	54.068615
1033.559937	1611.442749	1957.072510	-50.159237
1033.920654	1591.243652	1898.719482	-55.127151
1034.281128	1571.044434	1900.963867	-20.361120
1034.641724	1600.221069	1842.610718	-30.292053
1035.002197	1577.777466	1858.321167	-99.856682
1035.362671	1586.754883	1894.230713	36.710045
1035.722900	1564.311401	1847.099365	-72.517929
1036.083252	1593.487915	1898.719482	-27.809229
1036.443481	1602.465332	1853.832520	-27.809229
1036.803711	1566.555786	1811.189819	-55.127151
1037.163940	1532.890503	1833.633301	-35.258286
1037.523804	1517.180054	1858.321167	29.269131
1037.883789	1597.976685	1822.411621	-102.342720
1038.243774	1586.754883	1838.122070	-82.457733
1038.603638	1550.845337	1889.742065	-2.985821
1038.963257	1535.134888	1856.076782	-45.191875
1039.323120	1510.447021	1833.633301	-52.643143
1039.682861	1535.134888	1885.253418	29.269131
>>>>>End Processed Spectral Data<<<<<
