Jaz Data File
++++++++++++++++++++++++++++++++++++
Date: Sat Oct 24 19:35:31 2015
User: jaz
Dark Spectrum Present: Yes
Reference Spectrum Present: Yes
Processed Spectrum Present: No
Spectrometers: JAZA2310
Integration Time (usec): 3050 (JAZA2310)
Spectra Averaged: 1 (JAZA2310)
Boxcar Smoothing: 0 (JAZA2310)
Correct for Electrical Dark: Yes (JAZA2310)
Strobe/Lamp Enabled: No (JAZA2310)
Correct for Detector Non-linearity: Yes (JAZA2310)
Correct for Stray Light: No (JAZA2310)
Number of Pixels in Processed Spectrum: 2048
>>>>>Begin Processed Spectral Data<<<<<
W	D	R	S
188.301102	0.000000	0.000000	0.000000
188.764923	0.000000	0.000000	0.000000
189.228699	1479.026123	1564.311401	-96.677574
189.692459	1595.732300	1548.600952	-61.886776
190.156158	1582.266235	1541.867920	-39.532154
190.619812	1638.375000	1582.266235	-29.599525
191.083435	1629.397583	1562.067017	-51.950348
191.547043	1566.555786	1591.243652	-29.599525
192.010590	1613.687134	1606.954102	54.760151
192.474091	1562.067017	1588.999268	32.441250
192.937561	1636.130615	1629.397583	5.151267
193.401001	1615.931396	1613.687134	74.592003
193.864410	1575.533203	1582.266235	-51.950348
194.327759	1645.108032	1602.465332	-44.499172
194.791077	1613.687134	1591.243652	49.801060
195.254349	1580.021851	1629.397583	72.113472
195.717575	1669.795776	1564.311401	96.895187
196.180786	1562.067017	1633.886230	54.760151
196.643951	1577.777466	1636.130615	17.557411
197.107071	1609.198364	1631.641846	22.519060
197.570145	1580.021851	1571.044434	-4.775362
198.033203	1606.954102	1613.687134	-24.633909
198.496216	1566.555786	1633.886230	20.038357
198.959167	1618.175781	1658.574097	-59.402477
199.422089	1566.555786	1575.533203	27.480429
199.884979	1573.288818	1577.777466	-34.565697
200.347855	1597.976685	1611.442749	-111.594276
200.810654	1622.664551	1638.375000	-14.703798
201.273422	1613.687134	1645.108032	-9.739439
201.736160	1580.021851	1705.705444	39.881771
202.198853	1562.067017	1640.619263	-14.703798
202.661514	1557.578369	1571.044434	-56.918285
203.124130	1550.845337	1663.062744	-59.402477
203.586700	1539.623535	1624.908813	-61.886776
204.049240	1564.311401	1611.442749	5.151267
204.511734	1597.976685	1597.976685	-99.163330
204.974197	1564.311401	1649.596680	-76.794533
205.436615	1571.044434	1600.221069	-74.309593
205.899002	1548.600952	1649.596680	-39.532154
206.361343	1597.976685	1651.841064	42.361778
206.823654	1571.044434	1629.397583	-61.886776
207.285919	1537.379272	1624.908813	34.921570
207.748123	1537.379272	1488.003540	0.188161
208.210327	1548.600952	1602.465332	22.519060
208.672485	1535.134888	1622.664551	47.321491
209.134583	1546.356567	1667.551514	12.595346
209.596649	1544.112305	1640.619263	22.519060
210.058670	1588.999268	1577.777466	-2.293616
210.520676	1584.510620	1611.442749	29.960958
210.982635	1544.112305	1568.800171	-24.633909
211.444534	1541.867920	1575.533203	-49.466473
211.906403	1557.578369	1582.266235	-94.191788
212.368240	1604.709717	1633.886230	12.595346
212.830048	1602.465332	1669.795776	-49.466473
213.291779	1535.134888	1638.375000	27.480429
213.753494	1577.777466	1665.307129	-101.649338
214.215179	1546.356567	1613.687134	-59.402477
214.676819	1541.867920	1584.510620	-42.015610
215.138412	1485.759155	1568.800171	84.505539
215.599960	1595.732300	1692.239380	47.321491
216.061493	1555.333984	1564.311401	-22.151190
216.522949	1550.845337	1613.687134	-71.824898
216.984406	1629.397583	1609.198364	-56.918285
217.445801	1595.732300	1573.288818	-2.293616
217.907166	1562.067017	1559.822754	-69.340172
218.368484	1609.198364	1640.619263	42.361778
218.829773	1611.442749	1611.442749	-24.633909
219.291031	1550.845337	1642.863647	22.519060
219.752228	1508.202637	1606.954102	-4.775362
220.213379	1550.845337	1663.062744	17.557411
220.674500	1456.582642	1633.886230	-59.402477
221.135574	1505.958374	1595.732300	-76.794533
221.596634	1555.333984	1638.375000	-71.824898
222.057648	1544.112305	1645.108032	-14.703798
222.518600	1505.958374	1597.976685	-39.532154
222.979553	1593.487915	1620.420166	-17.186201
223.440430	1528.401855	1649.596680	-2.293616
223.901276	1546.356567	1629.397583	-29.599525
224.362076	1557.578369	1660.818481	22.519060
224.822845	1539.623535	1636.130615	-66.855560
225.283569	1519.424438	1640.619263	44.841686
225.744278	1488.003540	1575.533203	-61.886776
226.204910	1591.243652	1600.221069	-46.982700
226.665512	1530.646240	1577.777466	34.921570
227.126114	1611.442749	1615.931396	-4.775362
227.586639	1555.333984	1604.709717	17.557411
228.047119	1559.822754	1606.954102	-12.221633
228.507568	1517.180054	1656.329712	-22.151190
228.967972	1595.732300	1663.062744	37.401791
229.428345	1624.908813	1600.221069	-61.886776
229.888687	1591.243652	1604.709717	-44.499172
230.348984	1521.668823	1613.687134	10.114091
230.809219	1604.709717	1633.886230	-54.434334
231.269440	1575.533203	1654.085449	-64.371048
231.729614	1586.754883	1678.773193	-37.048943
232.189758	1602.465332	1665.307129	-76.794533
232.649841	1517.180054	1593.487915	-54.434334
233.109894	1571.044434	1636.130615	-59.402477
233.569901	1519.424438	1575.533203	-37.048943
234.029892	1562.067017	1642.863647	-34.565697
234.489822	1571.044434	1611.442749	-74.309593
234.949707	1591.243652	1620.420166	-22.151190
235.409561	1559.822754	1584.510620	0.188161
235.869385	1591.243652	1526.157471	-124.027756
236.329163	1606.954102	1568.800171	-69.340172
236.788895	1588.999268	1602.465332	-24.633909
237.248581	1566.555786	1582.266235	-42.015610
237.708237	1568.800171	1627.153198	-66.855560
238.167847	1586.754883	1564.311401	-39.532154
238.627441	1537.379272	1627.153198	54.760151
239.086960	1492.492188	1627.153198	-19.668711
239.546463	1588.999268	1633.886230	-59.402477
240.005920	1595.732300	1698.972412	57.239410
240.465332	1546.356567	1640.619263	-34.565697
240.924698	1532.890503	1611.442749	-54.434334
241.384033	1582.266235	1588.999268	12.595346
241.843338	1609.198364	1571.044434	-49.466473
242.302597	1557.578369	1683.261963	24.999798
242.761810	1523.913086	1597.976685	-9.739439
243.220993	1517.180054	1654.085449	-114.080811
243.680115	1595.732300	1624.908813	-22.151190
244.139221	1609.198364	1622.664551	-66.855560
244.598282	1586.754883	1654.085449	24.999798
245.057297	1566.555786	1595.732300	-42.015610
245.516266	1604.709717	1631.641846	24.999798
245.975189	1492.492188	1618.175781	5.151267
246.434082	1586.754883	1627.153198	-19.668711
246.892944	1593.487915	1640.619263	-27.116732
247.351761	1544.112305	1615.931396	-24.633909
247.810516	1512.691406	1631.641846	-39.532154
248.269272	1555.333984	1611.442749	-17.186201
248.727951	1521.668823	1555.333984	15.076364
249.186600	1555.333984	1555.333984	-4.775362
249.645218	1573.288818	1618.175781	17.557411
250.103790	1600.221069	1586.754883	-7.257348
250.562317	1571.044434	1638.375000	-2.293616
251.020813	1600.221069	1649.596680	-81.764587
251.479279	1550.845337	1611.442749	-49.466473
251.937668	1521.668823	1647.352295	-74.309593
252.396057	1564.311401	1584.510620	-91.706100
252.854385	1602.465332	1636.130615	-61.886776
253.312683	1553.089722	1618.175781	10.114091
253.770920	1582.266235	1631.641846	20.038357
254.229126	1559.822754	1553.089722	-39.532154
254.687302	1559.822754	1654.085449	-91.706100
255.145432	1521.668823	1611.442749	-2.293616
255.603500	1474.537476	1564.311401	-12.221633
256.061584	1615.931396	1606.954102	5.151267
256.519592	1571.044434	1620.420166	-74.309593
256.977570	1597.976685	1651.841064	-29.599525
257.435455	1512.691406	1539.623535	-121.540924
257.893372	1562.067017	1595.732300	-9.739439
258.351196	1568.800171	1633.886230	27.480429
258.808990	1566.555786	1566.555786	-56.918285
259.266754	1588.999268	1588.999268	-91.706100
259.724487	1503.713989	1613.687134	-89.220528
260.182190	1541.867920	1611.442749	2.669834
260.639832	1564.311401	1689.994995	-9.739439
261.097443	1568.800171	1681.017578	-86.735199
261.554993	1642.863647	1674.284546	17.557411
262.012512	1575.533203	1604.709717	47.321491
262.469971	1568.800171	1595.732300	37.401791
262.927429	1588.999268	1665.307129	-101.649338
263.384827	1548.600952	1615.931396	-14.703798
263.842194	1627.153198	1602.465332	37.401791
264.299530	1566.555786	1571.044434	-17.186201
264.756805	1577.777466	1600.221069	-39.532154
265.214050	1562.067017	1602.465332	22.519060
265.671234	1588.999268	1622.664551	29.960958
266.128387	1517.180054	1571.044434	-42.015610
266.585510	1631.641846	1645.108032	-14.703798
267.042572	1571.044434	1687.750610	-89.220528
267.499573	1582.266235	1595.732300	-12.221633
267.956604	1609.198364	1548.600952	-7.257348
268.413574	1557.578369	1615.931396	12.595346
268.870483	1615.931396	1656.329712	-19.668711
269.327362	1544.112305	1591.243652	-4.775362
269.784180	1559.822754	1624.908813	-27.116732
270.240936	1532.890503	1548.600952	-71.824898
270.697693	1568.800171	1602.465332	-69.340172
271.154419	1627.153198	1640.619263	-79.279572
271.611053	1586.754883	1611.442749	-61.886776
272.067688	1523.913086	1663.062744	5.151267
272.524292	1535.134888	1557.578369	-42.015610
272.980835	1613.687134	1651.841064	-99.163330
273.437347	1523.913086	1557.578369	-64.371048
273.893799	1555.333984	1568.800171	-14.703798
274.350250	1532.890503	1548.600952	-34.565697
274.806610	1575.533203	1575.533203	-7.257348
275.262939	1564.311401	1571.044434	-46.982700
275.719238	1532.890503	1606.954102	-17.186201
276.175507	1573.288818	1609.198364	24.999798
276.631714	1638.375000	1642.863647	-71.824898
277.087891	1544.112305	1600.221069	15.076364
277.544067	1582.266235	1611.442749	-37.048943
278.000122	1566.555786	1613.687134	-32.082561
278.456177	1566.555786	1624.908813	-79.279572
278.912201	1577.777466	1622.664551	-66.855560
279.368164	1544.112305	1611.442749	-44.499172
279.824097	1580.021851	1674.284546	-39.532154
280.279968	1539.623535	1685.506226	-42.015610
280.735840	1566.555786	1660.818481	-69.340172
281.191620	1526.157471	1638.375000	-34.565697
281.647400	1550.845337	1660.818481	-42.015610
282.103149	1508.202637	1606.954102	-4.775362
282.558838	1532.890503	1629.397583	54.760151
283.014465	1505.958374	1593.487915	7.632731
283.470062	1544.112305	1640.619263	-14.703798
283.925629	1667.551514	1696.728027	-34.565697
284.381134	1503.713989	1588.999268	10.114091
284.836639	1564.311401	1638.375000	-44.499172
285.292053	1553.089722	1633.886230	-22.151190
285.747467	1559.822754	1651.841064	22.519060
286.202820	1618.175781	1606.954102	5.151267
286.658142	1559.822754	1573.288818	29.960958
287.113434	1595.732300	1575.533203	-4.775362
287.568634	1604.709717	1604.709717	2.669834
288.023804	1546.356567	1582.266235	-37.048943
288.478973	1530.646240	1669.795776	29.960958
288.934113	1609.198364	1647.352295	2.669834
289.389130	1557.578369	1571.044434	-9.739439
289.844208	1528.401855	1654.085449	15.076364
290.299164	1555.333984	1546.356567	-49.466473
290.754089	1593.487915	1627.153198	84.505539
291.208984	1600.221069	1613.687134	-64.371048
291.663879	1602.465332	1602.465332	47.321491
292.118683	1553.089722	1613.687134	-4.775362
292.573456	1553.089722	1577.777466	0.188161
293.028198	1526.157471	1613.687134	-34.565697
293.482849	1505.958374	1685.506226	0.188161
293.937561	1501.469604	1633.886230	-7.257348
294.392151	1501.469604	1586.754883	-34.565697
294.846741	1499.225342	1620.420166	-39.532154
295.301239	1539.623535	1580.021851	-39.532154
295.755737	1557.578369	1633.886230	-19.668711
296.210175	1535.134888	1642.863647	-39.532154
296.664581	1566.555786	1649.596680	-2.293616
297.118958	1573.288818	1564.311401	-34.565697
297.573242	1499.225342	1663.062744	-46.982700
298.027557	1532.890503	1604.709717	-66.855560
298.481812	1568.800171	1582.266235	12.595346
298.935974	1571.044434	1553.089722	24.999798
299.390137	1517.180054	1577.777466	-12.221633
299.844238	1571.044434	1577.777466	-19.668711
300.298340	1624.908813	1591.243652	20.038357
300.752350	1562.067017	1580.021851	27.480429
301.206360	1553.089722	1631.641846	-46.982700
301.660278	1582.266235	1544.112305	-27.116732
302.114197	1575.533203	1582.266235	-34.565697
302.568054	1586.754883	1559.822754	-32.082561
303.021881	1548.600952	1658.574097	27.480429
303.475677	1568.800171	1624.908813	-56.918285
303.929413	1559.822754	1638.375000	7.632731
304.383118	1553.089722	1663.062744	-24.633909
304.836761	1530.646240	1622.664551	-32.082561
305.290375	1649.596680	1638.375000	-19.668711
305.743958	1571.044434	1544.112305	-61.886776
306.197510	1606.954102	1586.754883	-81.764587
306.650970	1656.329712	1595.732300	39.881771
307.104431	1622.664551	1651.841064	-7.257348
307.557800	1568.800171	1588.999268	20.038357
308.011169	1541.867920	1577.777466	-24.633909
308.464508	1557.578369	1627.153198	-106.621521
308.917755	1586.754883	1615.931396	-14.703798
309.371063	1584.510620	1613.687134	-22.151190
309.824219	1631.641846	1654.085449	-29.599525
310.277374	1584.510620	1606.954102	-17.186201
310.730499	1591.243652	1642.863647	-46.982700
311.183563	1548.600952	1640.619263	0.188161
311.636597	1562.067017	1564.311401	-19.668711
312.089569	1573.288818	1627.153198	-66.855560
312.542511	1548.600952	1620.420166	-46.982700
312.995422	1597.976685	1654.085449	-34.565697
313.448273	1550.845337	1645.108032	-51.950348
313.901093	1566.555786	1591.243652	-14.703798
314.353882	1544.112305	1548.600952	-42.015610
314.806580	1546.356567	1573.288818	-46.982700
315.259308	1537.379272	1588.999268	-19.668711
315.711975	1550.845337	1550.845337	-7.257348
316.164581	1586.754883	1602.465332	-86.735199
316.617126	1593.487915	1705.705444	-74.309593
317.069672	1577.777466	1636.130615	-84.249840
317.522156	1526.157471	1672.040161	-27.116732
317.974579	1584.510620	1647.352295	-22.151190
318.427002	1559.822754	1642.863647	-9.739439
318.879333	1503.713989	1609.198364	-24.633909
319.331665	1597.976685	1613.687134	-39.532154
319.783936	1467.804443	1696.728027	34.921570
320.236176	1595.732300	1631.641846	-9.739439
320.688354	1613.687134	1721.415894	-37.048943
321.140503	1566.555786	1591.243652	-27.116732
321.592651	1618.175781	1571.044434	0.188161
322.044647	1613.687134	1687.750610	-56.918285
322.496704	1582.266235	1651.841064	-2.293616
322.948639	1476.781860	1669.795776	2.669834
323.400604	1606.954102	1689.994995	-49.466473
323.852509	1562.067017	1618.175781	-29.599525
324.304352	1568.800171	1638.375000	-12.221633
324.756165	1532.890503	1676.528931	-27.116732
325.207916	1557.578369	1723.660156	-29.599525
325.659668	1557.578369	1665.307129	-56.918285
326.111328	1559.822754	1615.931396	-84.249840
326.562988	1490.247925	1624.908813	-27.116732
327.014557	1584.510620	1611.442749	-9.739439
327.466156	1586.754883	1721.415894	15.076364
327.917664	1586.754883	1606.954102	-42.015610
328.369110	1613.687134	1600.221069	-14.703798
328.820557	1485.759155	1613.687134	-12.221633
329.271942	1591.243652	1705.705444	32.441250
329.723297	1577.777466	1595.732300	-19.668711
330.174561	1555.333984	1685.506226	-32.082561
330.625854	1566.555786	1674.284546	-12.221633
331.077026	1577.777466	1618.175781	-54.434334
331.528229	1580.021851	1692.239380	-66.855560
331.979370	1559.822754	1703.461060	-91.706100
332.430450	1580.021851	1714.682861	-94.191788
332.881500	1555.333984	1703.461060	-66.855560
333.332489	1575.533203	1721.415894	32.441250
333.783478	1559.822754	1672.040161	-91.706100
334.234406	1555.333984	1716.927124	-84.249840
334.685303	1548.600952	1692.239380	-19.668711
335.136078	1647.352295	1627.153198	-29.599525
335.586914	1523.913086	1739.370605	-14.703798
336.037659	1557.578369	1725.904541	-17.186201
336.488342	1532.890503	1757.325439	-32.082561
336.939026	1613.687134	1826.900269	32.441250
337.389648	1483.514893	1732.637573	-14.703798
337.840240	1539.623535	1698.972412	-49.466473
338.290771	1577.777466	1808.945435	32.441250
338.741272	1546.356567	1829.144653	39.881771
339.191681	1483.514893	1725.904541	-27.116732
339.642120	1535.134888	1838.122070	-56.918285
340.092468	1541.867920	1797.723755	-37.048943
340.542816	1550.845337	1683.261963	-27.116732
340.993103	1548.600952	1770.791504	-29.599525
341.443329	1618.175781	1786.501953	-34.565697
341.893555	1624.908813	1804.456787	-37.048943
342.343689	1609.198364	1811.189819	-49.466473
342.793793	1532.890503	1768.547241	-17.186201
343.243866	1615.931396	1829.144653	-17.186201
343.693878	1604.709717	1826.900269	5.151267
344.143890	1526.157471	1849.343750	0.188161
344.593842	1611.442749	1831.389038	20.038357
345.043732	1580.021851	1900.963867	-14.703798
345.493591	1593.487915	1871.787231	-64.371048
345.943359	1593.487915	1820.167236	-9.739439
346.393158	1582.266235	1891.986450	-17.186201
346.842896	1470.048706	1826.900269	-46.982700
347.292542	1580.021851	1894.230713	-24.633909
347.742218	1566.555786	1880.764648	-17.186201
348.191803	1631.641846	1927.895996	-22.151190
348.641357	1541.867920	1853.832520	-27.116732
349.090881	1517.180054	1903.208130	-22.151190
349.540314	1577.777466	1871.787231	37.401791
349.989777	1580.021851	1999.715210	-32.082561
350.439148	1562.067017	1840.366333	-24.633909
350.888489	1526.157471	1963.805542	-69.340172
351.337799	1597.976685	2049.090820	69.634697
351.787048	1620.420166	2024.403076	-59.402477
352.236267	1573.288818	1961.561279	-101.649338
352.685425	1519.424438	2022.158691	2.669834
353.134552	1519.424438	2026.647339	-96.677574
353.583649	1593.487915	2073.778809	-34.565697
354.032684	1528.401855	2040.113403	-42.015610
354.481659	1555.333984	1984.004761	-64.371048
354.930634	1575.533203	2098.466553	-94.191788
355.379517	1508.202637	2062.556885	29.960958
355.828430	1588.999268	2125.398682	44.841686
356.277222	1627.153198	2111.932617	-32.082561
356.726013	1595.732300	2136.620361	-56.918285
357.174774	1514.935791	2154.575195	10.114091
357.623444	1523.913086	2102.955322	32.441250
358.072113	1582.266235	2102.955322	-9.739439
358.520721	1573.288818	2197.218018	-64.371048
358.969299	1562.067017	2170.285645	-24.633909
359.417786	1580.021851	2262.303955	-44.499172
359.866302	1575.533203	2170.285645	-37.048943
360.314697	1582.266235	2168.041260	-2.293616
360.763123	1553.089722	2255.571045	-49.466473
361.211456	1559.822754	2273.525879	-91.706100
361.659760	1573.288818	2109.688232	-101.649338
362.108032	1541.867920	2233.127441	-17.186201
362.556244	1559.822754	2215.172607	-46.982700
363.004456	1559.822754	2163.552734	-66.855560
363.452576	1564.311401	2300.458008	-39.532154
363.900696	1609.198364	2374.521484	20.038357
364.348663	1577.777466	2239.860596	-86.735199
364.796722	1566.555786	2273.525879	-124.027756
365.244690	1519.424438	2242.104980	-19.668711
365.692596	1602.465332	2374.521484	-17.186201
366.140472	1591.243652	2372.277100	-24.633909
366.588287	1537.379272	2430.630127	-51.950348
367.036102	1651.841064	2482.250244	-12.221633
367.483826	1586.754883	2428.385986	-19.668711
367.931549	1537.379272	2473.272949	-27.116732
368.379181	1510.447021	2374.521484	-42.015610
368.826843	1595.732300	2462.051025	-86.735199
369.274384	1595.732300	2392.476318	-76.794533
369.721924	1517.180054	2423.897217	-54.434334
370.169403	1573.288818	2475.517334	-27.116732
370.616821	1564.311401	2549.580811	-81.764587
371.064270	1508.202637	2524.892822	-44.499172
371.511566	1548.600952	2545.092041	-34.565697
371.958923	1557.578369	2515.915527	47.321491
372.406158	1559.822754	2581.001709	-9.739439
372.853424	1537.379272	2560.802490	-56.918285
373.300568	1586.754883	2637.110352	-22.151190
373.747711	1566.555786	2585.490234	-46.982700
374.194794	1479.026123	2504.693848	10.114091
374.641846	1541.867920	2639.354736	-24.633909
375.088898	1584.510620	2614.666748	69.634697
375.535828	1602.465332	2616.911133	72.113472
375.982758	1559.822754	2650.576416	-37.048943
376.429596	1564.311401	2708.929443	27.480429
376.876465	1523.913086	2650.576416	-54.434334
377.323242	1627.153198	2681.997314	-34.565697
377.769989	1600.221069	2735.861816	-22.151190
378.216675	1566.555786	2798.703613	42.361778
378.663330	1496.980957	2767.282715	-39.532154
379.109985	1571.044434	2735.861816	-89.220528
379.556519	1535.134888	2823.391357	-9.739439
380.003052	1658.574097	2782.993164	-24.633909
380.449524	1588.999268	2854.812256	-37.048943
380.895996	1593.487915	2827.880127	-89.220528
381.342377	1606.954102	2875.011475	-19.668711
381.788727	1562.067017	2762.793945	34.921570
382.235046	1535.134888	2915.409668	-14.703798
382.681274	1541.867920	2926.631348	101.850250
383.127533	1586.754883	2951.319336	-32.082561
383.573669	1562.067017	2949.074951	-54.434334
384.019836	1588.999268	2951.319336	-44.499172
384.465912	1564.311401	2933.364502	-66.855560
384.911957	1575.533203	3101.690674	-14.703798
385.357971	1544.112305	2928.875732	-7.257348
385.803925	1555.333984	3133.111572	-49.466473
386.249847	1600.221069	2973.762695	24.999798
386.695679	1571.044434	3160.043701	-44.499172
387.141541	1539.623535	3099.446289	32.441250
387.587311	1593.487915	3079.247070	-71.824898
388.033051	1548.600952	3222.885498	54.760151
388.478729	1575.533203	3164.532471	10.114091
388.924408	1620.420166	3180.242920	-19.668711
389.369995	1496.980957	3319.392578	-49.466473
389.815552	1553.089722	3160.043701	32.441250
390.261078	1559.822754	3314.903809	2.669834
390.706543	1508.202637	3207.175049	-56.918285
391.152008	1501.469604	3332.858643	-81.764587
391.597351	1633.886230	3341.835938	-22.151190
392.042725	1606.954102	3209.419434	-14.703798
392.487976	1539.623535	3373.256836	-34.565697
392.933289	1557.578369	3438.343018	-121.540924
393.378479	1544.112305	3335.103027	12.595346
393.823639	1582.266235	3366.523926	-2.293616
394.268768	1535.134888	3344.080322	15.076364
394.713837	1624.908813	3379.989990	22.519060
395.158905	1535.134888	3501.184814	-7.257348
395.603851	1548.600952	3368.768311	47.321491
396.048798	1577.777466	3543.827393	-2.293616
396.493683	1571.044434	3510.162109	20.038357
396.938568	1602.465332	3469.763916	-14.703798
397.383392	1548.600952	3460.786621	-56.918285
397.828156	1600.221069	3492.207520	-39.532154
398.272888	1609.198364	3537.094482	-4.775362
398.717560	1584.510620	3676.244141	-17.186201
399.162201	1544.112305	3537.094482	-24.633909
399.606781	1548.600952	3671.755371	-12.221633
400.051361	1580.021851	3691.954590	15.076364
400.495819	1559.822754	3613.402344	-19.668711
400.940308	1588.999268	3739.085938	-17.186201
401.384705	1629.397583	3759.284912	-14.703798
401.829102	1582.266235	3754.796387	-9.739439
402.273438	1591.243652	3837.837158	22.519060
402.717682	1597.976685	3833.348389	0.188161
403.161926	1562.067017	3943.321533	-34.565697
403.606110	1654.085449	3896.190186	27.480429
404.050293	1541.867920	3849.058838	22.519060
404.494385	1546.356567	3844.570313	-49.466473
404.938446	1514.935791	3815.393799	15.076364
405.382477	1573.288818	3833.348389	-7.257348
405.826447	1535.134888	3945.565918	-51.950348
406.270386	1528.401855	4012.896484	-4.775362
406.714233	1555.333984	4062.272217	2.669834
407.158081	1559.822754	4024.118164	2.669834
407.601868	1566.555786	4019.629395	-49.466473
408.045624	1559.822754	4048.806152	-4.775362
408.489319	1577.777466	4046.561768	-29.599525
408.933014	1553.089722	4172.245117	44.841686
409.376617	1584.510620	4021.873779	17.557411
409.820190	1629.397583	4219.376465	67.155815
410.263702	1539.623535	4264.263672	15.076364
410.707184	1580.021851	4327.105469	-37.048943
411.150635	1553.089722	4349.548828	29.960958
411.594025	1636.130615	4345.060059	-2.293616
412.037384	1541.867920	4419.123535	-9.739439
412.480682	1422.917358	4423.612305	29.960958
412.923981	1566.555786	4374.236816	0.188161
413.367126	1642.863647	4239.575684	34.921570
413.810333	1580.021851	4387.702637	22.519060
414.253479	1586.754883	4392.191406	116.713127
414.696533	1562.067017	4538.074219	77.070580
415.139587	1526.157471	4560.517578	54.760151
415.582581	1519.424438	4513.386230	89.461761
416.025543	1575.533203	4558.273438	82.027275
416.468414	1544.112305	4809.640625	42.361778
416.911285	1555.333984	4674.979492	62.197887
417.354065	1611.442749	4589.694336	24.999798
417.796875	1580.021851	4668.246582	20.038357
418.239594	1575.533203	4800.663086	42.361778
418.682281	1593.487915	4652.536133	114.236328
419.124908	1615.931396	4764.753418	109.282143
419.567505	1588.999268	4740.065430	104.327698
420.010071	1577.777466	4912.880371	146.428070
420.452545	1519.424438	4834.328125	111.759285
420.895020	1526.157471	4912.880371	129.096161
421.337372	1591.243652	4982.455078	148.903702
421.779785	1573.288818	5105.894531	163.755051
422.222107	1580.021851	4953.278809	173.653976
422.664368	1514.935791	5067.740723	198.394241
423.106628	1541.867920	5101.405762	223.124542
423.548798	1537.379272	5150.781738	208.287582
423.990967	1557.578369	5283.198242	186.025284
424.433044	1548.600952	5325.840820	158.804901
424.875092	1584.510620	5146.292969	166.229965
425.317078	1557.578369	5206.890137	136.524719
425.759064	1519.424438	5303.397461	210.760574
426.200989	1575.533203	5155.270020	287.377075
426.642853	1571.044434	5341.551270	314.540955
427.084686	1557.578369	5449.279785	257.730347
427.526459	1584.510620	5426.836426	272.555450
427.968201	1597.976685	5390.926758	307.133789
428.409912	1521.668823	5375.216309	393.496613
428.851563	1548.600952	5646.782715	341.693085
429.293121	1568.800171	5458.257324	398.428040
429.734711	1530.646240	5404.393066	410.755096
430.176239	1620.420166	5536.809570	408.289825
430.617706	1539.623535	5622.094727	420.614990
431.059113	1566.555786	5815.108887	400.893677
431.500488	1508.202637	5767.977539	408.289825
431.941833	1530.646240	5794.909668	477.280029
432.383087	1564.311401	5799.398438	484.667450
432.824341	1505.958374	5756.755859	553.576416
433.265533	1602.465332	5960.991699	583.086914
433.706726	1526.157471	5799.398438	585.545532
434.147827	1550.845337	5866.729004	691.179321
434.588867	1602.465332	5788.176758	656.805176
435.029877	1624.908813	6044.032715	681.360046
435.470825	1602.465332	5911.615723	796.648376
435.911804	1546.356567	5996.901367	875.031921
436.352661	1627.153198	6106.874512	811.351990
436.793518	1568.800171	6093.408203	821.152893
437.234283	1557.578369	6351.508301	965.553772
437.675049	1532.890503	6165.227539	982.666443
438.115723	1593.487915	6142.783691	953.327942
438.556396	1564.311401	6277.444824	1143.814697
438.997040	1562.067017	6463.725586	1109.661621
439.437561	1564.311401	6555.744141	1180.389771
439.878113	1553.089722	6510.856934	1287.572388
440.318573	1604.709717	6465.970215	1331.375610
440.759033	1606.954102	6582.676270	1418.906494
441.199341	1577.777466	6661.228516	1603.369263
441.639709	1555.333984	6771.201660	1617.913696
442.079956	1557.578369	6775.690430	1700.282227
442.520264	1548.600952	6950.749512	1739.014771
442.960510	1584.510620	6993.392090	1966.199097
443.400604	1546.356567	6874.441895	2026.516357
443.840759	1580.021851	6977.681641	2144.614502
444.280762	1604.709717	7280.668945	2476.361328
444.720825	1505.958374	7013.591309	2337.082764
445.160767	1530.646240	7267.202637	2639.381592
445.600739	1514.935791	7141.519043	2794.941895
446.040558	1523.913086	7235.781738	3048.079346
446.480438	1510.447021	7143.763672	3252.971924
446.920258	1566.555786	7361.465332	3400.424805
447.359955	1609.198364	7433.284668	3557.155029
447.799713	1568.800171	7686.895996	3779.968018
448.239319	1564.311401	7610.588379	4056.644287
448.678955	1559.822754	7630.787598	4165.228516
449.118500	1546.356567	7794.625000	4591.447266
449.558014	1604.709717	7664.452637	4706.553711
449.997498	1530.646240	7796.869141	5002.011230
450.436951	1580.021851	7774.425781	5163.490234
450.876343	1548.600952	7971.928711	5338.759277
451.315674	1532.890503	7998.860840	5481.119629
451.754974	1573.288818	7976.416992	5739.734863
452.194183	1537.379272	8003.349609	6041.916504
452.633392	1602.465332	8194.119141	6322.510254
453.072510	1519.424438	8102.100586	6394.295898
453.511688	1519.424438	8337.757813	6505.365723
453.950684	1606.954102	8380.400391	6678.715332
454.389740	1568.800171	8227.784180	6893.338867
454.828735	1550.845337	8277.160156	6987.842285
455.267639	1636.130615	8313.069336	7056.946777
455.706543	1557.578369	8355.711914	7261.738281
456.145325	1530.646240	8604.834961	7128.316406
456.584137	1620.420166	8535.259766	7192.744141
457.022858	1566.555786	8497.106445	7121.411133
457.461578	1573.288818	8425.287109	7068.460938
457.900208	1582.266235	8708.075195	7100.693848
458.338867	1537.379272	8622.790039	7096.089844
458.777405	1595.732300	8705.831055	7015.488770
459.215912	1586.754883	8681.142578	6699.501953
459.654388	1517.180054	9055.949219	6775.687500
460.092773	1615.931396	8867.423828	6837.987305
460.531189	1526.157471	9015.550781	6632.512695
460.969513	1523.913086	9226.519531	6634.822754
461.407806	1577.777466	9035.750000	6394.295898
461.846008	1622.664551	9251.208008	6581.668945
462.284241	1557.578369	9426.266602	6294.710938
462.722351	1575.533203	9208.564453	6202.002930
463.160461	1622.664551	9320.782227	6183.453125
463.598541	1546.356567	9783.118164	6368.828613
464.036530	1530.646240	9911.045898	6454.471191
464.474518	1541.867920	9823.516602	6276.175293
464.912384	1591.243652	10173.634766	6292.394531
465.350281	1535.134888	10005.308594	6139.385742
465.788086	1584.510620	10245.454102	6169.538086
466.225891	1571.044434	10283.608398	6297.028320
466.663605	1510.447021	10676.369141	6320.194336
467.101318	1559.822754	10552.929688	6394.295898
467.539001	1604.709717	10662.903320	6190.409180
467.976563	1519.424438	11116.261719	6271.540527
468.414124	1541.867920	11188.081055	6382.719727
468.851593	1514.935791	11235.211914	6271.540527
469.289063	1535.134888	11803.032227	6521.555176
469.726440	1535.134888	11809.765625	6410.499512
470.163849	1575.533203	12002.779297	6526.180176
470.601135	1553.089722	12247.414063	6565.487305
471.038422	1571.044434	12510.002930	6701.810547
471.475677	1555.333984	12613.243164	6440.586914
471.912811	1539.623535	12570.600586	6757.222168
472.350006	1618.175781	13026.203125	6717.975098
472.787048	1555.333984	13295.525391	6671.786133
473.224121	1584.510620	13409.986328	6535.430176
473.661072	1584.510620	13677.064453	6574.734375
474.098053	1577.777466	13787.037109	6729.519531
474.534943	1559.822754	13899.254883	6630.201660
474.971802	1667.551514	14229.173828	6616.337402
475.408630	1550.845337	14920.433594	6620.958984
475.845367	1618.175781	14844.125977	6577.045898
476.282104	1600.221069	15288.506836	6690.263672
476.718750	1593.487915	15385.013672	6623.270020
477.155426	1575.533203	15797.974609	6639.443848
477.591949	1580.021851	15923.658203	6607.093262
478.028503	1546.356567	16224.400391	6590.915039
478.464966	1615.931396	16592.474609	6872.584961
478.901428	1564.311401	16650.826172	6798.764648
479.337860	1537.379272	17270.267578	6925.616211
479.774170	1586.754883	17427.371094	6833.373535
480.210510	1575.533203	17476.748047	6934.836914
480.646698	1627.153198	18111.898438	6971.712891
481.082947	1546.356567	18277.980469	6955.580566
481.519073	1584.510620	18688.695313	7003.970215
481.955200	1517.180054	18787.447266	7038.522461
482.391266	1597.976685	19440.552734	7068.460938
482.827301	1584.510620	19685.187500	7277.832031
483.263306	1571.044434	19994.908203	7459.317383
483.699188	1573.288818	20163.234375	7567.169434
484.135101	1573.288818	20253.007813	7507.518066
484.570923	1604.709717	20973.443359	7539.642090
485.006744	1562.067017	20818.583984	7700.142090
485.442413	1604.709717	20796.140625	7782.608398
485.878174	1535.134888	21305.607422	7759.705566
486.313782	1584.510620	21534.531250	8070.833984
486.749390	1595.732300	22012.578125	7981.688477
487.184998	1550.845337	22111.328125	7784.898438
487.620453	1604.709717	22275.166016	8264.920898
488.055939	1555.333984	22634.261719	8114.243652
488.491333	1577.777466	22627.529297	8319.670898
488.926727	1566.555786	22719.546875	8529.338867
489.362030	1591.243652	22849.718750	8278.610352
489.797302	1555.333984	23195.349609	8574.875977
490.232513	1575.533203	23489.359375	8875.041016
490.667755	1510.447021	23523.023438	8729.587891
491.102905	1609.198364	23698.083984	8918.192383
491.537964	1597.976685	24108.798828	8818.242188
491.973022	1624.908813	24559.914063	9022.609375
492.407990	1541.867920	24292.835938	9083.860352
492.842957	1620.420166	24575.625000	9290.103516
493.277832	1593.487915	24903.298828	9541.266602
493.712738	1548.600952	25302.792969	9355.764648
494.147491	1573.288818	25581.091797	9624.889648
494.582275	1544.112305	25195.064453	9373.873047
495.017029	1535.134888	25724.730469	9613.591797
495.451660	1577.777466	25863.880859	9866.444336
495.886292	1557.578369	26092.804688	9866.444336
496.320831	1573.288818	25861.636719	10114.357422
496.755402	1510.447021	26366.615234	10175.146484
497.189850	1557.578369	26788.552734	10474.223633
497.624298	1539.623535	26916.480469	10359.609375
498.058655	1564.311401	26932.191406	10599.974609
498.493042	1496.980957	26696.535156	10795.136719
498.927368	1544.112305	27197.023438	10703.194336
499.361572	1586.754883	27217.222656	10891.505859
499.795807	1580.021851	27455.125000	11063.926758
500.229919	1586.754883	27847.884766	11325.566406
500.664063	1496.980957	27785.042969	11198.154297
501.098083	1654.085449	28465.082031	11274.166016
501.532104	1593.487915	28337.154297	11684.925781
501.966064	1550.845337	28680.539063	11620.253906
502.399994	1530.646240	28471.814453	11600.177734
502.833893	1591.243652	28586.275391	11860.981445
503.267700	1505.958374	28815.199219	11970.090820
503.701477	1499.225342	29443.617188	12094.705078
504.135193	1555.333984	29567.056641	12297.020508
504.568909	1586.754883	29881.265625	12452.499023
505.002502	1548.600952	29782.513672	12474.700195
505.436127	1604.709717	29816.179688	12527.970703
505.869629	1591.243652	30224.650391	12572.351563
506.303162	1526.157471	29840.867188	12984.617188
506.736603	1505.958374	30184.253906	12931.469727
507.169983	1510.447021	30749.828125	13104.150391
507.603363	1591.243652	30581.501953	13210.344727
508.036621	1606.954102	30945.087891	13243.519531
508.469940	1588.999268	30924.888672	13338.592773
508.903107	1555.333984	31288.472656	13744.962891
509.336304	1571.044434	31286.228516	13594.867188
509.769379	1604.709717	31802.429688	13806.740234
510.202484	1604.709717	31723.876953	13987.567383
510.635529	1615.931396	32011.152344	13886.144531
511.068481	1636.130615	32226.611328	14051.487305
511.501434	1557.578369	32201.923828	14170.466797
511.934265	1580.021851	32491.443359	14474.286133
512.367126	1629.397583	32805.652344	14663.456055
512.799927	1584.510620	32435.335938	14243.150391
513.232605	1582.266235	32226.611328	14351.039063
513.665344	1593.487915	32394.937500	14520.489258
514.097961	1571.044434	33252.277344	14887.665039
514.530579	1544.112305	33214.125000	15085.364258
514.963135	1591.243652	33864.984375	15201.733398
515.395691	1611.442749	33557.511719	14968.956055
515.828064	1535.134888	34024.335938	15096.344727
516.260498	1645.108032	33950.269531	15212.709961
516.692871	1584.510620	34181.437500	15445.325195
517.125183	1566.555786	34457.492188	15478.231445
517.557373	1606.954102	34430.562500	15241.245117
517.989624	1584.510620	34942.273438	15750.147461
518.421753	1591.243652	35191.394531	15778.644531
518.853943	1541.867920	35368.699219	16048.184570
519.286072	1537.379272	35523.558594	16116.091797
519.718018	1568.800171	35337.277344	15831.250000
520.150024	1566.555786	35593.132813	16026.273438
520.581909	1553.089722	35384.410156	16181.800781
521.013855	1600.221069	35539.269531	16367.933594
521.445679	1544.112305	35871.433594	16396.396484
521.877502	1550.845337	35875.921875	16311.003906
522.309204	1550.845337	36082.402344	16497.095703
522.740906	1548.600952	36185.644531	16400.773438
523.172546	1494.736572	36001.605469	16764.095703
523.604187	1508.202637	36522.296875	16365.744141
524.035767	1483.514893	36481.898438	16799.103516
524.467224	1609.198364	36237.261719	16433.611328
524.898682	1535.134888	36235.019531	16700.636719
525.330078	1595.732300	36551.472656	16680.941406
525.761475	1571.044434	36746.730469	16597.779297
526.192749	1557.578369	37049.718750	16939.125000
526.624023	1600.221069	37045.230469	16814.419922
527.055237	1555.333984	37040.738281	16921.623047
527.486389	1672.040161	37260.687500	17232.218750
527.917542	1544.112305	37253.953125	16943.500000
528.348572	1550.845337	37328.015625	17190.666016
528.779663	1620.420166	37651.203125	17380.923828
529.210571	1633.886230	37509.808594	17256.275391
529.641541	1611.442749	37146.222656	17315.320313
530.072388	1562.067017	37669.156250	17293.453125
530.503235	1584.510620	37691.601563	17575.525391
530.934082	1609.198364	37925.011719	17641.115234
531.364746	1537.379272	37725.265625	17413.722656
531.795532	1606.954102	37653.445313	17597.388672
532.226135	1557.578369	37904.812500	17481.507813
532.656738	1537.379272	38398.570313	17662.978516
533.087280	1521.668823	38118.027344	17584.273438
533.517822	1557.578369	38515.277344	17870.669922
533.948242	1539.623535	38277.375000	17774.478516
534.378662	1555.333984	38620.761719	17881.599609
534.809082	1588.999268	38712.781250	18010.576172
535.239319	1584.510620	38477.125000	17910.017578
535.669617	1555.333984	38914.773438	17813.830078
536.099792	1613.687134	39085.343750	18218.246094
536.529968	1553.089722	39170.628906	18229.177734
536.960083	1582.266235	39338.953125	18533.031250
537.390137	1591.243652	39092.074219	18399.683594
537.820190	1571.044434	39179.605469	18111.132813
538.250183	1499.225342	39260.402344	18561.449219
538.680115	1514.935791	39390.574219	18347.220703
539.109985	1580.021851	39926.972656	18345.035156
539.539795	1523.913086	39471.371094	18613.917969
539.969543	1548.600952	39514.011719	18589.871094
540.399292	1494.736572	39547.679688	18618.289063
540.828979	1571.044434	40252.402344	18775.693359
541.258606	1530.646240	39848.421875	18985.582031
541.688171	1546.356567	40012.257813	18937.480469
542.117737	1611.442749	39933.707031	19077.414063
542.547302	1571.044434	40169.363281	18919.988281
542.976685	1575.533203	40537.437500	19309.214844
543.406128	1645.108032	40811.246094	19057.736328
543.835388	1548.600952	40481.328125	19215.177734
544.264771	1618.175781	41022.214844	19368.263672
544.693970	1597.976685	40811.246094	19427.316406
545.123230	1503.713989	40777.582031	19554.181641
545.552307	1586.754883	40838.179688	19621.996094
545.981506	1595.732300	40681.074219	19339.832031
546.410583	1604.709717	41675.320313	19602.306641
546.839539	1615.931396	41361.113281	19807.960938
547.268555	1627.153198	41163.609375	19937.066406
547.697449	1622.664551	41854.867188	20114.349609
548.126282	1618.175781	41693.277344	20094.650391
548.555054	1577.777466	41574.324219	20339.845703
548.983887	1535.134888	41242.160156	20438.384766
549.412598	1490.247925	41931.175781	20291.675781
549.841309	1606.954102	42056.859375	20355.171875
550.269958	1577.777466	41906.488281	20554.464844
550.698486	1582.266235	42389.023438	20997.080078
551.127075	1539.623535	42299.250000	20661.800781
551.555481	1492.492188	42424.933594	20896.255859
551.983948	1557.578369	42898.492188	21130.812500
552.412292	1586.754883	42557.351563	21328.179688
552.840698	1544.112305	42871.558594	20666.181641
553.268860	1508.202637	42721.187500	21304.054688
553.697205	1559.822754	42705.476563	21611.212891
554.125366	1606.954102	43378.781250	21626.576172
554.553467	1528.401855	43751.343750	21745.107422
554.981628	1568.800171	43320.429688	22103.078125
555.409607	1586.754883	43987.000000	22070.123047
555.837646	1550.845337	43989.246094	22193.162109
556.265564	1562.067017	44114.929688	22632.875000
556.693481	1571.044434	44384.250000	22525.103516
557.121338	1591.243652	44458.312500	22936.539063
557.549133	1606.954102	44985.734375	22863.904297
557.976929	1546.356567	45120.398438	23524.693359
558.404602	1559.822754	45580.488281	23531.304688
558.832275	1476.781860	45650.062500	23515.875000
559.259888	1553.089722	45450.316406	23965.806641
559.687439	1568.800171	46036.089844	24082.781250
560.114929	1546.356567	45919.386719	24285.910156
560.542419	1577.777466	46038.335938	24493.554688
560.969788	1588.999268	46184.218750	24440.529297
561.397156	1582.266235	46374.988281	24659.302734
561.824524	1588.999268	46500.671875	25008.687500
562.251770	1588.999268	46464.761719	25106.031250
562.679016	1584.510620	46579.222656	25103.820313
563.106140	1640.619263	46662.265625	24774.257813
563.533264	1620.420166	46408.652344	25210.039063
563.960327	1568.800171	46475.984375	25267.585938
564.387329	1472.293091	46417.632813	25110.458984
564.814331	1521.668823	46366.011719	25287.507813
565.241272	1575.533203	46253.792969	25573.144531
565.668213	1465.560059	46552.292969	25522.207031
566.094971	1566.555786	46655.531250	25635.166016
566.521790	1618.175781	46298.679688	25500.058594
566.948425	1595.732300	45874.500000	25752.587891
567.375183	1624.908813	46045.070313	25991.945313
567.801819	1492.492188	45690.460938	26160.453125
568.228394	1597.976685	46130.355469	25790.255859
568.654846	1562.067017	45789.214844	25998.595703
569.081421	1602.465332	45905.917969	26056.236328
569.507874	1523.913086	45710.660156	26326.794922
569.934265	1584.510620	45807.167969	26169.324219
570.360596	1548.600952	45681.484375	26224.765625
570.786865	1521.668823	45766.769531	26218.111328
571.213074	1588.999268	45501.937500	26329.011719
571.639282	1568.800171	45241.593750	26908.269531
572.065430	1584.510620	45477.250000	26577.509766
572.491516	1548.600952	45522.136719	26644.093750
572.917603	1514.935791	45501.937500	26524.251953
573.343567	1571.044434	45573.753906	26708.462891
573.769531	1595.732300	45322.386719	26377.816406
574.195435	1519.424438	45131.617188	26977.109375
574.621277	1508.202637	45486.226563	26728.441406
575.047119	1584.510620	45138.351563	26759.517578
575.472839	1510.447021	45423.382813	26957.125000
575.898560	1591.243652	45524.378906	27501.398438
576.324158	1548.600952	45353.808594	27081.490234
576.749817	1568.800171	44842.097656	27530.289063
577.175293	1615.931396	45506.425781	27274.750000
577.600830	1530.646240	45124.886719	27088.152344
578.026306	1539.623535	45044.089844	27496.953125
578.451721	1613.687134	45405.429688	27412.509766
578.877136	1505.958374	45039.601563	27423.619141
579.302429	1539.623535	45055.312500	27705.884766
579.727661	1575.533203	45237.101563	27710.328125
580.152832	1550.845337	45111.417969	27843.716797
580.578064	1602.465332	45252.812500	27572.515625
581.003113	1539.623535	44869.031250	28228.425781
581.428223	1559.822754	44871.273438	28006.031250
581.853271	1582.266235	45201.195313	28119.445313
582.278198	1566.555786	44779.257813	27910.416016
582.703125	1503.713989	44893.718750	28143.910156
583.127930	1595.732300	45614.152344	28103.878906
583.552795	1503.713989	45293.210938	28619.945313
583.977539	1550.845337	45176.507813	28530.951172
584.402283	1519.424438	45569.265625	28866.923828
584.826965	1546.356567	45131.617188	28542.076172
585.251587	1550.845337	45852.054688	29009.343750
585.676208	1541.867920	45335.855469	29194.058594
586.100647	1514.935791	45266.281250	29254.148438
586.525208	1620.420166	45699.437500	29536.812500
586.949524	1577.777466	45259.546875	29243.021484
587.373962	1541.867920	45396.453125	29405.492188
587.798218	1582.266235	45486.226563	29559.070313
588.222534	1582.266235	45528.867188	29405.492188
588.646729	1577.777466	45582.734375	29539.039063
589.070984	1532.890503	45625.375000	29258.599609
589.495117	1573.288818	45618.644531	29340.949219
589.919128	1573.288818	45638.843750	29859.552734
590.343201	1510.447021	45546.824219	29512.328125
590.767151	1530.646240	45941.828125	29743.810547
591.191101	1588.999268	45499.691406	29799.455078
591.614990	1526.157471	45558.046875	29625.843750
592.038818	1528.401855	45793.703125	29912.974609
592.462524	1523.913086	45798.191406	30389.283203
592.886292	1535.134888	45775.746094	30193.423828
593.310059	1600.221069	45733.105469	29955.263672
593.733582	1606.954102	45593.953125	29881.810547
594.157227	1557.578369	45771.257813	29897.392578
594.580750	1584.510620	45946.316406	30144.455078
595.004272	1580.021851	45676.996094	29966.392578
595.427673	1584.510620	46096.687500	29979.748047
595.851074	1521.668823	45964.273438	29986.423828
596.274353	1591.243652	45782.480469	30320.289063
596.697632	1575.533203	45973.250000	30182.294922
597.120911	1575.533203	45912.652344	30211.228516
597.544067	1564.311401	45560.289063	30004.232422
597.967224	1588.999268	46314.390625	30418.218750
598.390320	1555.333984	45804.921875	29950.810547
598.813354	1557.578369	46449.050781	29970.843750
599.236328	1499.225342	45757.792969	30088.810547
599.659241	1571.044434	46141.574219	29981.972656
600.082153	1577.777466	46045.070313	29977.523438
600.505005	1553.089722	46072.000000	30013.134766
600.927795	1541.867920	46137.085938	29754.939453
601.350525	1593.487915	45995.691406	30215.679688
601.773254	1613.687134	46040.582031	29621.390625
602.195862	1600.221069	45878.988281	29616.939453
602.618408	1555.333984	46054.046875	29877.359375
603.040955	1528.401855	46202.171875	29777.197266
603.463440	1553.089722	45979.984375	29848.423828
603.885925	1622.664551	46233.593750	29625.843750
604.308350	1526.157471	45892.453125	29608.037109
604.730652	1550.845337	46168.507813	29218.539063
605.152893	1588.999268	46107.910156	29320.917969
605.575195	1564.311401	46300.925781	29498.974609
605.997375	1535.134888	46058.535156	29979.748047
606.419495	1568.800171	46056.289063	29467.812500
606.841553	1562.067017	46058.535156	29236.343750
607.263672	1568.800171	46478.226563	29169.578125
607.685608	1571.044434	46608.402344	29118.390625
608.107605	1600.221069	46139.332031	29122.841797
608.529480	1512.691406	46366.011719	29360.980469
608.951294	1541.867920	46345.812500	29247.472656
609.373108	1557.578369	46677.976563	29481.167969
609.794800	1510.447021	46426.609375	29327.593750
610.216553	1573.288818	46754.285156	29358.753906
610.638123	1492.492188	46938.320313	29200.734375
611.059753	1492.492188	46781.214844	29069.429688
611.481262	1564.311401	47577.960938	29100.585938
611.902832	1539.623535	47032.582031	28940.359375
612.324219	1588.999268	47304.148438	29614.712891
612.745605	1580.021851	47553.273438	28951.484375
613.166931	1508.202637	47941.542969	29149.548828
613.588196	1541.867920	47719.355469	28975.964844
614.009460	1514.935791	47766.484375	28935.908203
614.430664	1575.533203	48094.160156	29031.597656
614.851807	1604.709717	48134.558594	28951.484375
615.272827	1606.954102	48145.781250	28951.484375
615.693909	1595.732300	47903.390625	28490.906250
616.114929	1604.709717	48148.023438	28771.242188
616.535889	1512.691406	47829.328125	28250.666016
616.956787	1557.578369	48320.839844	27774.796875
617.377563	1546.356567	47966.230469	27841.492188
617.798340	1588.999268	48980.679688	27919.312500
618.219055	1586.754883	48208.621094	27539.179688
618.639832	1595.732300	48439.789063	28106.103516
619.060364	1555.333984	48006.628906	27399.175781
619.481018	1546.356567	47692.421875	27205.882813
619.901611	1580.021851	47640.800781	26735.099609
620.322083	1593.487915	47878.703125	26644.093750
620.742493	1584.510620	47591.425781	26566.416016
621.162842	1577.777466	46588.203125	26466.560547
621.583191	1537.379272	47620.601563	26226.982422
622.003418	1550.845337	46862.011719	25805.767578
622.423706	1573.288818	46974.230469	25484.556641
622.843872	1642.863647	46938.320313	25198.974609
623.264038	1602.465332	46552.292969	24756.572266
623.684143	1611.442749	46532.093750	24458.203125
624.104126	1562.067017	46395.187500	24345.541016
624.524170	1609.198364	46051.800781	24252.783203
624.944031	1595.732300	45672.507813	24025.392578
625.364014	1645.108032	45946.316406	23727.546875
625.783752	1532.890503	46024.871094	23670.207031
626.203552	1559.822754	45845.320313	23119.283203
626.623230	1595.732300	45771.257813	23084.050781
627.042969	1557.578369	45189.972656	22896.919922
627.462585	1595.732300	45077.753906	22674.671875
627.882141	1597.976685	45172.015625	22004.222656
628.301697	1611.442749	44972.269531	22056.943359
628.721130	1559.822754	44803.945313	21846.099609
629.140625	1532.890503	44426.894531	21378.632813
629.559998	1532.890503	44029.644531	21080.384766
629.979309	1553.089722	44301.210938	21034.347656
630.398560	1573.288818	44072.285156	20865.576172
630.817810	1562.067017	43785.007813	20729.716797
631.237000	1530.646240	44016.175781	20429.625000
631.656067	1580.021851	43933.136719	20331.085938
632.075195	1539.623535	43666.058594	20083.705078
632.494202	1642.863647	43807.453125	19847.347656
632.913208	1566.555786	43910.691406	19871.417969
633.332092	1606.954102	43113.949219	19396.695313
633.750977	1573.288818	43594.238281	19311.400391
634.169739	1568.800171	43704.210938	19328.898438
634.588562	1602.465332	42743.632813	18889.378906
635.007263	1595.732300	43143.125000	18939.666016
635.425964	1568.800171	42543.882813	18557.078125
635.844543	1600.221069	43293.496094	18395.312500
636.263123	1548.600952	43262.074219	18084.902344
636.681641	1535.134888	43028.664063	18041.181641
637.100037	1597.976685	42963.578125	17883.785156
637.518494	1564.311401	42943.378906	17623.625000
637.936829	1544.112305	43024.175781	17439.960938
638.355164	1571.044434	42698.746094	17203.789063
638.773438	1575.533203	43293.496094	17313.132813
639.191650	1606.954102	42427.179688	17028.812500
639.609863	1571.044434	42703.234375	17081.308594
640.027893	1519.424438	42492.265625	16488.339844
640.445984	1564.311401	42454.109375	16383.259766
640.863953	1528.401855	42389.023438	16341.659180
641.281921	1550.845337	43156.589844	16295.677734
641.699829	1573.288818	42225.187500	16063.517578
642.117676	1559.822754	43006.218750	15699.725586
642.535461	1591.243652	42415.957031	15684.378906
642.953247	1613.687134	41884.046875	15627.369141
643.370972	1577.777466	42222.941406	15355.369141
643.788635	1564.311401	42460.843750	15210.513672
644.206177	1577.777466	42418.199219	15113.912109
644.623718	1505.958374	42332.914063	14663.456055
645.041260	1539.623535	42200.500000	14889.862305
645.458618	1582.266235	42148.878906	14524.890625
645.876099	1523.913086	42056.859375	14764.589844
646.293396	1584.510620	41991.773438	14170.466797
646.710693	1568.800171	41731.429688	14104.374023
647.127991	1604.709717	41985.042969	13782.472656
647.545166	1555.333984	41987.285156	13773.647461
647.962341	1602.465332	42068.082031	13680.963867
648.379333	1537.379272	42050.128906	13548.494141
648.796448	1613.687134	41560.859375	13550.702148
649.213379	1575.533203	41895.265625	13232.461914
649.630310	1597.976685	41230.941406	13020.041992
650.047180	1539.623535	41484.550781	12734.256836
650.463989	1541.867920	41623.699219	12940.327148
650.880859	1593.487915	41760.605469	12527.970703
651.297546	1640.619263	42011.972656	12432.515625
651.714233	1609.198364	41542.906250	12294.799805
652.130859	1555.333984	41740.406250	12099.153320
652.547485	1568.800171	41601.257813	12143.637695
652.963928	1541.867920	41296.027344	12019.056641
653.380432	1584.510620	41529.437500	11816.426758
653.796814	1544.112305	41480.062500	11457.346680
654.213196	1580.021851	41403.753906	11459.579102
654.629578	1571.044434	41560.859375	11437.250977
655.045837	1566.555786	41219.718750	10974.380859
655.462036	1651.841064	41049.148438	10927.348633
655.878174	1537.379272	41367.843750	10891.505859
656.294312	1609.198364	41724.695313	10831.000977
656.710327	1566.555786	41545.148438	10638.128906
657.126404	1613.687134	41210.742188	10483.208984
657.542358	1559.822754	40898.777344	10429.287109
657.958252	1573.288818	41291.539063	10267.405273
658.374084	1575.533203	41336.425781	10127.868164
658.789917	1591.243652	41475.574219	10211.156250
659.205688	1472.293091	40999.773438	10127.868164
659.621338	1463.315674	41067.101563	9900.276367
660.037048	1539.623535	40831.445313	9823.581055
660.452637	1597.976685	40777.582031	9405.557617
660.868164	1546.356567	40862.867188	9412.346680
661.283691	1566.555786	40699.027344	9104.271484
661.699158	1494.736572	40638.433594	9165.487305
662.114502	1546.356567	41255.628906	9328.598633
662.529846	1550.845337	40306.269531	8775.059570
662.945129	1571.044434	41010.992188	8738.683594
663.360413	1521.668823	40510.503906	8700.024414
663.775635	1588.999268	40555.390625	8586.257813
664.190674	1553.089722	40492.550781	8595.362305
664.605835	1575.533203	40811.246094	8415.428711
665.020813	1564.311401	40791.046875	8212.430664
665.435791	1463.315674	40541.925781	8226.125977
665.850769	1658.574097	40342.175781	8054.838379
666.265625	1517.180054	39922.484375	7993.120605
666.680420	1584.510620	40111.007813	7787.188477
667.095215	1591.243652	39994.304688	7677.225586
667.509949	1584.510620	40131.207031	7507.518066
667.924622	1559.822754	39606.031250	7539.642090
668.339233	1620.420166	39895.550781	7369.755371
668.753784	1595.732300	39834.953125	7176.640137
669.168335	1566.555786	39749.667969	7307.713867
669.582825	1609.198364	39381.597656	7254.840332
669.997192	1577.777466	39119.007813	6874.890625
670.411560	1555.333984	39267.132813	6849.520996
670.825867	1523.913086	39565.632813	6791.842285
671.240173	1564.311401	38910.281250	6847.213867
671.654358	1580.021851	39251.425781	6581.668945
672.068481	1564.311401	39150.429688	6470.667480
672.482605	1597.976685	39388.328125	6354.934570
672.896667	1519.424438	38908.039063	6389.665527
673.310669	1557.578369	39105.542969	6250.683594
673.724609	1624.908813	38777.867188	6065.130371
674.138489	1528.401855	38706.046875	6241.412109
674.552307	1523.913086	38400.816406	6021.020508
674.966064	1553.089722	38495.078125	5888.594727
675.379822	1627.153198	38324.507813	5823.490723
675.793579	1519.424438	38133.738281	5693.178223
676.207153	1519.424438	38421.015625	5546.408691
676.620789	1539.623535	38129.250000	5504.441406
677.034241	1530.646240	38019.277344	5469.456543
677.447754	1566.555786	38196.578125	5317.740723
677.861206	1564.311401	37857.683594	5320.075684
678.274597	1564.311401	38088.851563	5198.564941
678.687866	1544.112305	37577.140625	4955.163574
679.101135	1544.112305	37702.824219	4943.449219
679.514404	1559.822754	37101.335938	5058.203125
679.927551	1557.578369	37256.199219	4852.032715
680.340698	1492.492188	37772.398438	4744.114746
680.753723	1546.356567	37467.167969	4737.072754
681.166748	1470.048706	36782.640625	4715.945313
681.579712	1577.777466	37224.777344	4650.189941
681.992615	1537.379272	36984.632813	4462.105957
682.405457	1577.777466	37289.863281	4396.202148
682.818298	1530.646240	36924.035156	4431.512207
683.231018	1573.288818	36614.312500	4240.702148
683.643738	1535.134888	36917.300781	4287.846191
684.056335	1613.687134	36313.570313	4089.703125
684.468994	1562.067017	36742.242188	3914.849121
684.881531	1573.288818	36468.429688	3926.672363
685.293945	1620.420166	36315.816406	3900.658691
685.706482	1546.356567	35842.257813	3820.214111
686.118774	1613.687134	36147.488281	3763.392090
686.531128	1555.333984	35936.519531	3782.336182
686.943481	1593.487915	36284.394531	3666.250977
687.355713	1559.822754	36405.589844	3668.621094
687.767883	1521.668823	35929.785156	3557.155029
688.179932	1609.198364	35483.160156	3447.943848
688.592041	1633.886230	35460.718750	3528.676758
689.004089	1580.021851	35689.640625	3426.563232
689.416016	1568.800171	35456.230469	3379.033691
689.827881	1620.420166	35808.593750	3321.968750
690.239868	1566.555786	35092.644531	3245.831787
690.651611	1566.555786	35373.187500	3248.212402
691.063354	1571.044434	35079.179688	3202.979004
691.475098	1539.623535	34904.121094	3126.751465
691.886719	1523.913086	35162.218750	3007.526123
692.298340	1555.333984	34883.921875	2926.370117
692.709900	1559.822754	35000.625000	2876.209717
693.121460	1530.646240	34776.191406	2904.875977
693.532837	1541.867920	34834.542969	2923.981934
693.944214	1553.089722	34863.722656	2869.041992
694.355652	1559.822754	34607.867188	2706.423828
694.766846	1539.623535	34293.656250	2751.889404
695.178101	1573.288818	34596.644531	2713.604248
695.589294	1611.442749	33999.648438	2732.749023
696.000366	1544.112305	34417.093750	2596.257324
696.411438	1595.732300	33912.117188	2560.305176
696.822510	1546.356567	33939.050781	2660.936279
697.233459	1584.510620	34152.261719	2589.067871
697.644409	1591.243652	34022.089844	2541.124756
698.055298	1595.732300	33867.230469	2505.150635
698.466064	1577.777466	34174.707031	2303.431152
698.876831	1474.537476	33965.980469	2361.111816
699.287537	1501.469604	34087.175781	2228.871338
699.698181	1488.003540	33815.609375	2180.734619
700.108826	1571.044434	33676.460938	2272.172119
700.519348	1606.954102	33788.679688	2257.740723
700.929810	1602.465332	33734.812500	2178.326904
701.340271	1488.003540	33916.605469	2103.660156
701.750732	1562.067017	33487.933594	2108.479248
702.161011	1530.646240	33638.304688	1961.371826
702.571350	1566.555786	33456.515625	2050.631348
702.981567	1562.067017	33342.050781	1990.331299
703.391724	1519.424438	33115.375000	1869.601196
703.801880	1604.709717	33005.398438	1951.716553
704.211914	1568.800171	32738.322266	1958.958008
704.621948	1571.044434	33007.644531	1915.499146
705.031921	1535.134888	33007.644531	1934.817017
705.441895	1517.180054	33411.628906	1847.851074
705.851746	1577.777466	32758.521484	1714.808960
706.261536	1591.243652	32895.425781	1765.632568
706.671265	1562.067017	32435.335938	1613.065796
707.081055	1573.288818	32677.724609	1646.994629
707.490662	1530.646240	32482.466797	1739.014771
707.900330	1505.958374	32383.714844	1554.868652
708.309814	1530.646240	32130.103516	1588.822266
708.719299	1638.375000	32561.019531	1559.719849
709.128784	1550.845337	32430.845703	1533.033447
709.538147	1573.288818	32174.990234	1491.772949
709.947510	1550.845337	32183.968750	1593.671509
710.356750	1566.555786	32089.705078	1448.061157
710.766052	1573.288818	32433.091797	1491.772949
711.175171	1633.886230	31928.113281	1465.063110
711.584290	1611.442749	31750.808594	1501.483154
711.993347	1517.180054	31777.740234	1489.345093
712.402405	1620.420166	31607.169922	1438.344238
712.811401	1557.578369	31609.414063	1421.336548
713.220276	1611.442749	31764.275391	1299.742432
713.629150	1611.442749	31604.925781	1341.106323
714.037964	1597.976685	31658.791016	1263.226196
714.446777	1544.112305	31636.347656	1212.073364
714.855408	1546.356567	31409.667969	1251.050171
715.264099	1526.157471	31227.875000	1282.703735
715.672668	1546.356567	31232.363281	1272.965698
716.081177	1510.447021	31310.916016	1173.076416
716.489746	1613.687134	30660.054688	1131.619141
716.898132	1555.333984	31236.853516	1238.872192
717.306519	1532.890503	30671.277344	1095.019775
717.714844	1575.533203	30617.412109	1038.865112
718.123108	1566.555786	30956.308594	1038.865112
718.531372	1615.931396	30581.501953	1080.375000
718.939514	1575.533203	30601.701172	1021.765930
719.347595	1597.976685	30274.027344	960.663574
719.755676	1555.333984	30711.675781	1041.307373
720.163696	1573.288818	29935.130859	953.327942
720.571716	1629.397583	30361.556641	897.061523
720.979614	1557.578369	30384.000000	958.218323
721.387451	1582.266235	29822.912109	1016.879517
721.795227	1602.465332	29836.378906	897.061523
722.202942	1584.510620	29317.933594	887.271606
722.610718	1555.333984	29454.839844	857.893066
723.018311	1517.180054	29596.234375	772.135071
723.425903	1600.221069	29427.908203	826.052551
723.833374	1566.555786	29322.421875	838.300842
724.240906	1530.646240	29178.785156	796.648376
724.648376	1573.288818	29035.146484	867.687378
725.055725	1537.379272	29127.164063	796.648376
725.463013	1638.375000	29131.652344	872.583984
725.870300	1548.600952	28741.136719	794.197388
726.277466	1575.533203	28768.068359	757.423035
726.684631	1505.958374	29026.167969	723.082458
727.091797	1535.134888	28696.250000	703.451721
727.498779	1512.691406	28994.748047	696.088562
727.905823	1553.089722	29106.964844	632.241516
728.312805	1584.510620	29059.833984	688.724548
728.719666	1604.709717	28732.158203	649.437134
729.126526	1505.958374	28554.855469	698.543091
729.533264	1550.845337	28754.601563	700.997498
729.940063	1575.533203	28884.775391	612.583984
730.346680	1559.822754	28570.566406	646.980835
730.753357	1503.713989	28415.705078	676.449707
731.159851	1544.112305	28411.216797	629.784607
731.566406	1591.243652	28824.177734	651.893311
731.972900	1544.112305	28229.423828	615.041565
732.379272	1490.247925	28570.566406	612.583984
732.785645	1600.221069	28806.222656	556.036133
733.191895	1546.356567	28875.796875	664.172668
733.598206	1573.288818	28658.095703	568.333435
734.004333	1611.442749	28830.910156	627.327637
734.410522	1539.623535	28545.878906	575.710449
734.816528	1584.510620	29174.294922	651.893311
735.222656	1559.822754	29369.554688	556.036133
735.628662	1575.533203	28893.751953	602.753174
736.034546	1555.333984	29291.001953	553.576416
736.440430	1550.845337	29513.193359	487.129791
736.846252	1555.333984	29517.681641	563.414795
737.252014	1636.130615	29771.292969	521.592102
737.657715	1582.266235	29609.699219	521.592102
738.063354	1568.800171	29665.808594	516.669922
738.468933	1523.913086	29858.822266	506.824677
738.874512	1571.044434	29800.468750	487.129791
739.280029	1584.510620	29919.419922	477.280029
739.685486	1577.777466	30422.154297	501.901550
740.090881	1613.687134	30157.320313	531.434998
740.496216	1577.777466	30056.324219	450.185516
740.901550	1537.379272	30002.460938	361.432770
741.306702	1600.221069	30051.835938	391.030701
741.711914	1530.646240	29598.478516	336.757141
742.117004	1573.288818	29551.345703	383.632507
742.522095	1559.822754	29784.757813	415.685181
742.927124	1582.266235	29501.970703	432.937653
743.332031	1535.134888	28812.955078	428.008911
743.737000	1537.379272	29400.974609	391.030701
744.141785	1597.976685	29450.351563	391.030701
744.546631	1528.401855	28954.349609	430.473267
744.951355	1580.021851	29109.208984	423.079620
745.356079	1568.800171	28880.285156	420.614990
745.760620	1571.044434	28545.878906	356.498352
746.165283	1519.424438	28357.353516	314.540955
746.569824	1496.980957	28043.144531	437.866180
746.974243	1555.333984	27987.035156	391.030701
747.378723	1580.021851	27661.603516	302.195251
747.783020	1532.890503	27672.826172	294.786530
748.187378	1548.600952	27259.865234	366.366669
748.591614	1537.379272	27681.802734	317.009827
748.995850	1571.044434	27214.978516	435.401978
749.399963	1575.533203	27102.761719	287.377075
749.804077	1557.578369	26795.285156	309.602997
750.208130	1532.890503	26990.544922	265.143341
750.612122	1537.379272	26802.019531	257.730347
751.016052	1517.180054	26328.460938	260.201355
751.419922	1562.067017	26373.347656	307.133789
751.823792	1490.247925	26357.636719	242.901688
752.227478	1609.198364	26220.732422	262.672394
752.631226	1539.623535	26270.107422	233.013916
753.034851	1577.777466	25928.966797	200.867630
753.438477	1539.623535	25794.306641	260.201355
753.842102	1559.822754	25904.279297	235.485901
754.245544	1564.311401	25367.878906	270.084839
754.648987	1615.931396	25536.205078	250.316467
755.052368	1580.021851	25073.869141	265.143341
755.455750	1606.954102	25042.449219	282.436951
755.859009	1546.356567	25343.191406	183.551178
756.262268	1595.732300	24663.154297	292.316895
756.665405	1582.266235	24609.289063	215.706512
757.068542	1627.153198	24562.158203	255.259109
757.471680	1566.555786	24701.308594	223.124542
757.874634	1559.822754	24461.162109	215.706512
758.277588	1541.867920	24306.302734	213.233582
758.680420	1553.089722	24833.724609	171.179367
759.083374	1562.067017	24158.175781	257.730347
759.486084	1555.333984	24182.863281	198.394241
759.888916	1526.157471	23927.007813	161.280029
760.291504	1546.356567	23693.595703	225.597061
760.694214	1568.800171	23931.496094	193.446899
761.096802	1566.555786	23610.554688	166.229965
761.499268	1514.935791	23799.080078	181.077087
761.901733	1550.845337	23480.380859	198.394241
762.304199	1580.021851	23255.947266	228.069351
762.706543	1550.845337	23332.253906	148.903702
763.108826	1573.288818	23260.435547	213.233582
763.511108	1586.754883	23181.882813	190.973236
763.913208	1571.044434	22919.294922	173.653976
764.315369	1537.379272	23015.800781	208.287582
764.717529	1546.356567	23083.132813	143.952347
765.119568	1492.492188	22867.673828	178.602783
765.521545	1544.112305	22910.316406	84.505539
765.923462	1654.085449	22443.492188	205.814362
766.325317	1535.134888	22445.736328	126.619736
766.727112	1501.469604	22418.804688	86.983696
767.128845	1604.709717	22412.072266	141.476532
767.530518	1577.777466	22501.845703	208.287582
767.932251	1609.198364	22225.791016	166.229965
768.333862	1597.976685	21803.853516	59.718697
768.735413	1539.623535	22131.527344	111.759285
769.136841	1566.555786	21660.214844	82.027275
769.538269	1654.085449	22001.355469	148.903702
769.939636	1618.175781	21669.191406	104.327698
770.341003	1588.999268	21716.324219	72.113472
770.742249	1492.492188	21521.064453	190.973236
771.143433	1620.420166	21467.201172	59.718697
771.544617	1566.555786	21397.625000	106.805046
771.945740	1537.379272	21460.466797	77.070580
772.346802	1622.664551	21173.191406	111.759285
772.747803	1584.510620	21193.390625	82.027275
773.148682	1566.555786	20773.697266	168.704651
773.549622	1609.198364	21229.298828	104.327698
773.950439	1559.822754	21020.574219	143.952347
774.351196	1566.555786	21148.501953	12.595346
774.751892	1510.447021	20867.958984	94.417435
775.152588	1496.980957	20980.175781	77.070580
775.553162	1566.555786	21175.435547	32.441250
775.953735	1595.732300	20695.144531	12.595346
776.354309	1571.044434	20625.570313	64.676834
776.754639	1620.420166	20551.505859	99.372704
777.155090	1595.732300	20656.990234	47.321491
777.555420	1517.180054	20318.093750	49.801060
777.955750	1548.600952	20648.013672	-59.402477
778.355896	1618.175781	20261.984375	84.505539
778.756104	1591.243652	19994.908203	129.096161
779.156189	1519.424438	20024.083984	77.070580
779.556274	1584.510620	20172.210938	72.113472
779.956299	1604.709717	20127.324219	89.461761
780.356201	1562.067017	20080.193359	67.155815
780.756165	1609.198364	19864.734375	77.070580
781.156006	1553.089722	19611.123047	27.480429
781.555786	1562.067017	19714.363281	17.557411
781.955505	1532.890503	19673.964844	79.549042
782.355225	1595.732300	19626.833984	72.113472
782.754761	1501.469604	19530.326172	42.361778
783.154358	1595.732300	19682.943359	79.549042
783.553894	1483.514893	19458.507813	91.939583
783.953369	1597.976685	19238.562500	72.113472
784.352783	1559.822754	19254.271484	126.619736
784.752075	1595.732300	19469.730469	24.999798
785.151367	1575.533203	19009.638672	32.441250
785.550598	1600.221069	19092.679688	74.592003
785.949768	1580.021851	18915.375000	-7.257348
786.348877	1548.600952	19146.542969	37.401791
786.747986	1582.266235	18823.357422	84.505539
787.147034	1564.311401	18892.931641	24.999798
787.545959	1517.180054	19007.394531	12.595346
787.944885	1593.487915	18578.722656	10.114091
788.343750	1550.845337	18966.996094	22.519060
788.742493	1660.818481	18935.574219	34.921570
789.141235	1544.112305	18547.302734	37.401791
789.539917	1591.243652	18610.144531	-9.739439
789.938538	1566.555786	18484.460938	109.282143
790.337158	1521.668823	18264.513672	49.801060
790.735718	1537.379272	18417.128906	20.038357
791.134094	1566.555786	18392.441406	84.505539
791.532532	1539.623535	18264.513672	-7.257348
791.930847	1580.021851	18152.296875	17.557411
792.329224	1510.447021	18044.568359	-42.015610
792.727417	1595.732300	17802.177734	20.038357
793.125610	1512.691406	17900.929688	12.595346
793.523682	1602.465332	17903.173828	42.361778
793.921753	1514.935791	17856.042969	24.999798
794.319824	1559.822754	17645.074219	-9.739439
794.717773	1532.890503	17449.814453	-9.739439
795.115723	1593.487915	17694.449219	74.592003
795.513550	1512.691406	17627.119141	-4.775362
795.911377	1514.935791	17663.029297	54.760151
796.309082	1575.533203	17705.671875	34.921570
796.706787	1544.112305	17373.507813	47.321491
797.104370	1593.487915	17321.886719	5.151267
797.501953	1627.153198	17377.996094	82.027275
797.899536	1566.555786	17205.181641	54.760151
798.296936	1609.198364	17191.714844	54.760151
798.694397	1586.754883	17303.933594	64.676834
799.091736	1593.487915	17225.380859	37.401791
799.489014	1568.800171	16944.835938	20.038357
799.886230	1535.134888	16956.058594	-46.982700
800.283447	1499.225342	16994.212891	5.151267
800.680542	1535.134888	16906.683594	29.960958
801.077637	1593.487915	16834.863281	-32.082561
801.474670	1564.311401	16902.193359	42.361778
801.871643	1566.555786	16769.777344	-66.855560
802.268555	1541.867920	16873.017578	12.595346
802.665405	1568.800171	16951.570313	-22.151190
803.062256	1604.709717	16733.867188	-14.703798
803.458923	1571.044434	16502.699219	7.632731
803.855652	1555.333984	16594.718750	-29.599525
804.252258	1573.288818	16583.496094	-34.565697
804.648804	1622.664551	16684.492188	-37.048943
805.045410	1586.754883	16430.880859	-22.151190
805.441833	1526.157471	16460.056641	-101.649338
805.838257	1562.067017	16343.351563	-44.499172
806.234619	1530.646240	16543.097656	12.595346
806.630859	1600.221069	16480.255859	-29.599525
807.027100	1541.867920	16181.757813	10.114091
807.423279	1633.886230	16154.826172	37.401791
807.819458	1575.533203	16098.716797	64.676834
808.215515	1505.958374	16273.776367	-61.886776
808.611572	1611.442749	15901.214844	-24.633909
809.007507	1566.555786	15896.725586	-7.257348
809.403381	1553.089722	16049.341797	27.480429
809.799194	1479.026123	15847.349609	2.669834
810.195068	1546.356567	16047.096680	59.718697
810.590759	1550.845337	15863.060547	-12.221633
810.986450	1541.867920	15836.127930	44.841686
811.382080	1503.713989	15928.146484	-49.466473
811.777649	1595.732300	15600.471680	-29.599525
812.173157	1568.800171	15625.159180	10.114091
812.568665	1530.646240	15569.050781	-109.107841
812.964050	1620.420166	15726.155273	-51.950348
813.359375	1526.157471	15548.851563	-22.151190
813.754639	1584.510620	15548.851563	-4.775362
814.149841	1512.691406	15492.743164	24.999798
814.545105	1593.487915	15503.964844	-37.048943
814.940186	1568.800171	15456.833008	-2.293616
815.335266	1604.709717	15275.041016	29.960958
815.730347	1591.243652	15328.905273	-42.015610
816.125244	1555.333984	15259.330078	-22.151190
816.520203	1557.578369	15099.981445	-32.082561
816.914978	1566.555786	15012.452148	-19.668711
817.309753	1566.555786	15153.845703	-56.918285
817.704468	1537.379272	14987.764648	-42.015610
818.099182	1535.134888	15207.710938	-17.186201
818.493774	1582.266235	15106.714844	-86.735199
818.888367	1546.356567	14621.935547	32.441250
819.282898	1591.243652	15165.067383	10.114091
819.677307	1541.867920	14902.478516	-2.293616
820.071716	1573.288818	14931.655273	-59.402477
820.466003	1627.153198	14619.691406	5.151267
820.860291	1618.175781	14817.193359	-19.668711
821.254517	1573.288818	14803.727539	-17.186201
821.648743	1566.555786	14707.220703	-42.015610
822.042786	1591.243652	14480.541016	-17.186201
822.436890	1654.085449	14489.518555	-94.191788
822.830872	1573.288818	14574.803711	-19.668711
823.224792	1544.112305	14774.550781	-116.567314
823.618774	1580.021851	14410.966797	10.114091
824.012512	1550.845337	14500.740234	-17.186201
824.406311	1588.999268	14455.853516	-44.499172
824.799988	1577.777466	14345.879883	-7.257348
825.193665	1575.533203	14285.283203	15.076364
825.587280	1539.623535	14370.568359	-9.739439
825.980835	1535.134888	14105.735352	-37.048943
826.374329	1559.822754	14375.056641	-2.293616
826.767761	1564.311401	14112.467773	-12.221633
827.161194	1568.800171	14446.875977	-17.186201
827.554443	1606.954102	13984.540039	62.197887
827.947754	1604.709717	14188.776367	34.921570
828.340942	1609.198364	14081.046875	15.076364
828.734131	1532.890503	14139.400391	-17.186201
829.127136	1488.003540	13751.127930	22.519060
829.520264	1541.867920	13946.385742	-9.739439
829.913208	1481.270508	13681.552734	47.321491
830.306152	1629.397583	13784.792969	20.038357
830.699097	1588.999268	13946.385742	37.401791
831.091797	1571.044434	13885.789063	-46.982700
831.484619	1595.732300	13865.589844	-96.677574
831.877319	1631.641846	13701.751953	54.760151
832.270020	1582.266235	13504.249023	-61.886776
832.662537	1499.225342	13614.222656	49.801060
833.055054	1555.333984	13605.245117	-2.293616
833.447510	1559.822754	13362.855469	7.632731
833.839966	1642.863647	13600.756836	-49.466473
834.232361	1582.266235	13221.460938	-59.402477
834.624634	1557.578369	13627.688477	10.114091
835.016907	1555.333984	13450.384766	-124.027756
835.409058	1595.732300	13331.434570	-74.309593
835.801208	1544.112305	13203.506836	-76.794533
836.193298	1541.867920	13210.239258	-99.163330
836.585327	1588.999268	12965.605469	-24.633909
836.977295	1593.487915	13147.397461	-17.186201
837.369202	1609.198364	13010.492188	-22.151190
837.761047	1633.886230	12988.048828	-54.434334
838.152832	1553.089722	12860.121094	-81.764587
838.544617	1609.198364	12808.500977	-39.532154
838.936218	1508.202637	12759.125000	42.361778
839.327942	1519.424438	12786.057617	-34.565697
839.719421	1532.890503	12779.324219	-32.082561
840.111023	1575.533203	12871.342773	39.881771
840.502380	1584.510620	12637.930664	2.669834
840.893860	1600.221069	12770.347656	-46.982700
841.285217	1568.800171	12680.573242	17.557411
841.676453	1559.822754	12810.745117	-32.082561
842.067749	1636.130615	12633.441406	-42.015610
842.458862	1573.288818	12586.310547	7.632731
842.849976	1546.356567	12763.614258	20.038357
843.241028	1559.822754	12449.405273	-37.048943
843.632019	1575.533203	12761.370117	-74.309593
844.022949	1544.112305	12584.066406	49.801060
844.413879	1604.709717	12393.296875	39.881771
844.804749	1593.487915	12518.980469	-76.794533
845.195496	1537.379272	12534.690430	-49.466473
845.586182	1517.180054	12240.680664	-39.532154
845.976807	1555.333984	12568.355469	-2.293616
846.367432	1591.243652	12177.838867	29.960958
846.757996	1595.732300	12222.725586	0.188161
847.148499	1559.822754	12211.503906	-49.466473
847.538879	1593.487915	12090.309570	-12.221633
847.929260	1602.465332	12047.666992	-42.015610
848.319641	1564.311401	12076.843750	-66.855560
848.709839	1494.736572	11975.847656	17.557411
849.100098	1532.890503	11809.765625	7.632731
849.490234	1535.134888	11497.800781	24.999798
849.880310	1591.243652	11587.575195	-19.668711
850.270325	1584.510620	11764.878906	2.669834
850.660339	1548.600952	11836.698242	-44.499172
851.050171	1470.048706	11576.353516	-4.775362
851.440125	1546.356567	11596.552734	-27.116732
851.829895	1476.781860	11513.511719	42.361778
852.219604	1557.578369	11616.751953	0.188161
852.609314	1568.800171	11448.425781	39.881771
852.998901	1521.668823	11374.362305	-32.082561
853.388550	1537.379272	11347.429688	0.188161
853.778015	1562.067017	11289.077148	-64.371048
854.167480	1593.487915	11248.678711	2.669834
854.556885	1548.600952	11432.714844	-46.982700
854.946228	1517.180054	11520.245117	-32.082561
855.335571	1510.447021	11356.407227	-12.221633
855.724731	1521.668823	11500.045898	-24.633909
856.113953	1553.089722	11322.742188	-71.824898
856.503052	1512.691406	11461.891602	-7.257348
856.892151	1526.157471	11212.768555	-37.048943
857.281067	1615.931396	11403.538086	-17.186201
857.670105	1571.044434	11336.208008	-19.668711
858.058960	1539.623535	11120.750977	-34.565697
858.447754	1519.424438	11298.053711	-32.082561
858.836609	1593.487915	11028.732422	-19.668711
859.225281	1523.913086	11127.483398	-29.599525
859.613892	1526.157471	10968.134766	-34.565697
860.002502	1564.311401	11129.727539	-19.668711
860.391052	1571.044434	11055.664063	29.960958
860.779541	1530.646240	11102.795898	-119.054062
861.167969	1553.089722	10900.804688	44.841686
861.556335	1591.243652	10945.691406	22.519060
861.944702	1573.288818	10725.745117	27.480429
862.332947	1548.600952	10837.962891	-37.048943
862.721069	1452.093994	10750.432617	5.151267
863.109253	1555.333984	10759.410156	-14.703798
863.497314	1528.401855	10954.668945	-54.434334
863.885376	1566.555786	10712.279297	12.595346
864.273315	1627.153198	10683.102539	-9.739439
864.661255	1602.465332	10534.975586	34.921570
865.049072	1606.954102	10478.866211	15.076364
865.436890	1550.845337	10696.568359	101.850250
865.824707	1521.668823	10501.310547	57.239410
866.212280	1517.180054	10411.536133	-14.703798
866.599915	1523.913086	10400.314453	-49.466473
866.987488	1548.600952	10469.889648	5.151267
867.375061	1523.913086	10494.577148	-64.371048
867.762451	1461.071411	10454.178711	-56.918285
868.149841	1575.533203	10425.001953	-22.151190
868.537170	1559.822754	10016.530273	-34.565697
868.924438	1586.754883	10357.671875	-64.371048
869.311707	1553.089722	10285.852539	-61.886776
869.698853	1535.134888	10223.010742	-37.048943
870.085938	1602.465332	9924.512695	-59.402477
870.472961	1539.623535	9973.887695	-34.565697
870.859985	1588.999268	10054.684570	-69.340172
871.246887	1597.976685	9875.136719	-71.824898
871.633789	1546.356567	9951.444336	0.188161
872.020569	1510.447021	9684.367188	0.188161
872.407349	1546.356567	9774.140625	-42.015610
872.794067	1613.687134	9792.095703	-32.082561
873.180725	1539.623535	9525.018555	-29.599525
873.567322	1606.954102	9715.788086	17.557411
873.953796	1604.709717	9522.773438	29.960958
874.340332	1595.732300	9448.709961	-4.775362
874.726624	1501.469604	9592.348633	94.417435
875.113037	1496.980957	9365.668945	54.760151
875.499329	1564.311401	9471.153320	17.557411
875.885559	1541.867920	9349.958984	-44.499172
876.271729	1595.732300	9556.439453	59.718697
876.657898	1568.800171	9275.895508	32.441250
877.044006	1575.533203	9231.008789	-19.668711
877.429932	1517.180054	9231.008789	-42.015610
877.815918	1557.578369	9248.962891	7.632731
878.201782	1521.668823	9141.234375	24.999798
878.587585	1541.867920	9165.921875	2.669834
878.973389	1557.578369	8981.885742	-51.950348
879.359070	1470.048706	8896.600586	-34.565697
879.744751	1557.578369	8957.198242	-124.027756
880.130310	1535.134888	9062.682617	5.151267
880.515930	1541.867920	8936.999023	-39.532154
880.901367	1501.469604	8905.578125	12.595346
881.286804	1544.112305	8968.419922	17.557411
881.672180	1618.175781	9058.193359	-19.668711
882.057434	1577.777466	8766.427734	24.999798
882.442749	1564.311401	8941.487305	-29.599525
882.827942	1557.578369	8923.532227	-34.565697
883.213013	1528.401855	8721.541016	-34.565697
883.598145	1573.288818	8528.527344	27.480429
883.983154	1591.243652	8649.721680	-51.950348
884.368042	1640.619263	8784.382813	-14.703798
884.753052	1602.465332	8681.142578	5.151267
885.137817	1604.709717	8721.541016	-42.015610
885.522644	1584.510620	8712.563477	42.361778
885.907349	1622.664551	8465.685547	29.960958
886.292053	1494.736572	8604.834961	-19.668711
886.676636	1568.800171	8499.350586	-24.633909
887.061157	1496.980957	8517.305664	-94.191788
887.445740	1559.822754	8575.658203	-61.886776
887.830078	1555.333984	8517.305664	10.114091
888.214539	1568.800171	8559.948242	-49.466473
888.598816	1541.867920	8416.309570	-49.466473
888.983093	1532.890503	8443.242188	-17.186201
889.367249	1523.913086	8335.512695	-39.532154
889.751465	1591.243652	8411.821289	10.114091
890.135498	1600.221069	8598.101563	-29.599525
890.519531	1550.845337	8272.670898	-24.633909
890.903503	1597.976685	8167.187012	54.760151
891.287415	1606.954102	8223.295898	-99.163330
891.671326	1586.754883	8241.250000	-2.293616
892.055054	1537.379272	8200.852539	-19.668711
892.438843	1523.913086	8366.933594	-12.221633
892.822510	1604.709717	8153.720703	-96.677574
893.206116	1541.867920	8111.078125	2.669834
893.589661	1492.492188	8034.770508	-86.735199
893.973206	1571.044434	8164.942383	7.632731
894.356628	1548.600952	8086.390137	10.114091
894.739990	1566.555786	8030.281738	-69.340172
895.123352	1584.510620	8122.299805	-17.186201
895.506592	1559.822754	7951.729492	-71.824898
895.889832	1564.311401	8158.209473	-74.309593
896.272949	1503.713989	7875.421387	-12.221633
896.656067	1546.356567	7884.398926	-29.599525
897.039063	1566.555786	7882.154297	-37.048943
897.422058	1490.247925	7695.873535	15.076364
897.804993	1553.089722	7803.602539	-4.775362
898.187866	1553.089722	7817.068359	-42.015610
898.570618	1555.333984	7904.598145	-56.918285
898.953369	1514.935791	7707.095215	-51.950348
899.336121	1600.221069	7693.629395	2.669834
899.718689	1604.709717	7594.877930	-54.434334
900.101257	1577.777466	7718.316895	-64.371048
900.483704	1555.333984	7549.990723	-76.794533
900.866211	1546.356567	7729.538574	-29.599525
901.248596	1537.379272	7556.724121	-7.257348
901.630920	1564.311401	7466.949707	7.632731
902.013184	1550.845337	7527.547363	-49.466473
902.395386	1580.021851	7541.013672	-109.107841
902.777588	1544.112305	7188.650391	-37.048943
903.159668	1548.600952	7343.510742	24.999798
903.541687	1604.709717	7339.021973	-29.599525
903.923645	1584.510620	7197.627930	-12.221633
904.305603	1530.646240	7137.030762	-27.116732
904.687500	1593.487915	7137.030762	5.151267
905.069275	1568.800171	7121.320313	34.921570
905.451050	1539.623535	7291.890625	-158.856033
905.832642	1539.623535	7184.162109	-44.499172
906.214294	1548.600952	7184.162109	15.076364
906.595825	1514.935791	7226.804688	-71.824898
906.977417	1588.999268	7141.519043	-14.703798
907.358826	1577.777466	7269.447266	-84.249840
907.740234	1557.578369	7071.944336	-12.221633
908.121582	1586.754883	7179.673340	-17.186201
908.502869	1539.623535	7069.700195	-94.191788
908.884033	1575.533203	7175.184570	39.881771
909.265198	1571.044434	7098.876465	-17.186201
909.646301	1597.976685	7074.188965	-7.257348
910.027344	1537.379272	7125.809082	-37.048943
910.408325	1555.333984	7195.383789	-12.221633
910.789246	1580.021851	7233.537598	-101.649338
911.170105	1580.021851	7318.822754	-54.434334
911.550903	1577.777466	7352.488281	-44.499172
911.931641	1564.311401	7258.225586	0.188161
912.312317	1555.333984	7374.931641	-27.116732
912.692932	1521.668823	7446.750977	0.188161
913.073547	1566.555786	7460.216797	-9.739439
913.453979	1555.333984	7408.596680	-27.116732
913.834473	1573.288818	7594.877930	-24.633909
914.214783	1588.999268	7558.968262	-37.048943
914.595154	1550.845337	7558.968262	-12.221633
914.975464	1588.999268	7626.298828	0.188161
915.355652	1537.379272	7819.312988	-34.565697
915.735840	1591.243652	7648.742188	-101.649338
916.115845	1571.044434	7936.019043	-76.794533
916.495972	1550.845337	7882.154297	-24.633909
916.875854	1588.999268	7947.240723	-12.221633
917.255859	1586.754883	8088.634766	17.557411
917.635620	1588.999268	7817.068359	-49.466473
918.015503	1606.954102	7900.109375	5.151267
918.395203	1541.867920	7951.729492	-46.982700
918.774902	1609.198364	8131.277344	-66.855560
919.154480	1521.668823	8016.815430	-84.249840
919.534058	1573.288818	7918.063965	-19.668711
919.913574	1580.021851	7953.973633	-7.257348
920.292969	1564.311401	7776.669922	-14.703798
920.672363	1544.112305	7870.932617	-12.221633
921.051636	1546.356567	7884.398926	-22.151190
921.430969	1550.845337	7765.448242	-49.466473
921.810181	1532.890503	7689.140625	2.669834
922.189331	1521.668823	7576.922852	29.960958
922.568420	1633.886230	7662.208496	-79.279572
922.947388	1532.890503	7500.615234	-104.135437
923.326416	1523.913086	7527.547363	47.321491
923.705261	1667.551514	7356.977051	20.038357
924.084106	1541.867920	7347.999512	-37.048943
924.462891	1474.537476	7240.270508	7.632731
924.841675	1571.044434	7029.301758	-34.565697
925.220337	1566.555786	7235.781738	-29.599525
925.598938	1546.356567	7051.745117	-46.982700
925.977478	1593.487915	6831.799316	-22.151190
926.355957	1535.134888	6831.799316	-51.950348
926.734436	1530.646240	6834.043457	15.076364
927.112732	1488.003540	6676.938965	2.669834
927.491089	1514.935791	6663.472656	5.151267
927.869324	1597.976685	6535.544922	-101.649338
928.247559	1586.754883	6611.853027	-37.048943
928.625671	1588.999268	6342.530762	39.881771
929.003723	1580.021851	6281.933594	-116.567314
929.381775	1508.202637	6198.892578	-2.293616
929.759705	1530.646240	6228.069336	-32.082561
930.137634	1580.021851	6145.028320	-37.048943
930.515381	1541.867920	6124.829102	-89.220528
930.893250	1593.487915	5815.108887	-22.151190
931.270935	1595.732300	5911.615723	-49.466473
931.648560	1557.578369	5649.026855	29.960958
932.026123	1530.646240	5601.895508	-34.565697
932.403687	1514.935791	5595.162598	5.151267
932.781250	1629.397583	5530.076660	-22.151190
933.158630	1559.822754	5507.632813	2.669834
933.536011	1593.487915	5399.904297	5.151267
933.913208	1577.777466	5289.931152	-114.080811
934.290527	1591.243652	5227.089355	17.557411
934.667664	1577.777466	5222.600586	-34.565697
935.044800	1474.537476	4948.790039	-56.918285
935.421814	1597.976685	4854.527344	0.188161
935.798889	1541.867920	4654.780273	-79.279572
936.175842	1535.134888	4596.427246	-59.402477
936.552673	1595.732300	4481.965332	47.321491
936.929504	1566.555786	4329.349609	-49.466473
937.306274	1557.578369	4304.661621	-51.950348
937.683044	1571.044434	4212.643555	-101.649338
938.059570	1530.646240	4098.181641	-12.221633
938.436218	1544.112305	3941.077148	-49.466473
938.812744	1577.777466	3911.900635	39.881771
939.189148	1564.311401	3759.284912	27.480429
939.565613	1530.646240	3665.022217	-42.015610
939.941956	1519.424438	3552.804932	-34.565697
940.318237	1510.447021	3537.094482	-74.309593
940.694458	1571.044434	3492.207520	7.632731
941.070557	1651.841064	3402.433350	-32.082561
941.446655	1537.379272	3431.610107	-74.309593
941.822693	1535.134888	3263.283691	15.076364
942.198669	1584.510620	3263.283691	-46.982700
942.574646	1620.420166	3278.994141	7.632731
942.950562	1559.822754	3209.419434	-4.775362
943.326294	1514.935791	3124.134033	-34.565697
943.702026	1582.266235	3303.682129	-9.739439
944.077698	1535.134888	3227.374268	-4.775362
944.453369	1535.134888	3061.292480	7.632731
944.828918	1541.867920	3139.844482	-9.739439
945.204468	1541.867920	3110.667969	-89.220528
945.579834	1573.288818	3202.686279	-34.565697
945.955261	1564.311401	3088.224609	-49.466473
946.330627	1602.465332	3101.690674	-27.116732
946.705811	1557.578369	3108.423584	37.401791
947.081055	1566.555786	3160.043701	-61.886776
947.456177	1604.709717	3148.822021	-69.340172
947.831238	1606.954102	3283.482910	-49.466473
948.206238	1568.800171	3193.708984	-71.824898
948.581238	1580.021851	3258.795166	-71.824898
948.956116	1517.180054	3225.129883	-29.599525
949.330933	1555.333984	3189.220215	-39.532154
949.705811	1505.958374	3276.750000	2.669834
950.080505	1548.600952	3294.704590	-7.257348
950.455139	1557.578369	3240.840332	-32.082561
950.829773	1577.777466	3247.573242	-54.434334
951.204346	1546.356567	3395.700439	57.239410
951.578735	1550.845337	3323.881348	10.114091
951.953186	1562.067017	3339.591553	-12.221633
952.327515	1600.221069	3375.501221	-99.163330
952.701843	1631.641846	3281.238525	-22.151190
953.076172	1620.420166	3377.745605	-59.402477
953.450195	1548.600952	3501.184814	-42.015610
953.824341	1559.822754	3346.324707	-9.739439
954.198486	1548.600952	3420.388184	15.076364
954.572449	1564.311401	3514.650879	-24.633909
954.946350	1580.021851	3406.922119	22.519060
955.320251	1539.623535	3350.813477	-51.950348
955.694092	1591.243652	3436.098633	-7.257348
956.067871	1557.578369	3375.501221	-119.054062
956.441589	1595.732300	3519.139648	-84.249840
956.815125	1537.379272	3507.917969	-34.565697
957.188721	1548.600952	3386.722900	-51.950348
957.562256	1624.908813	3494.451660	-49.466473
957.935730	1595.732300	3501.184814	-39.532154
958.309021	1564.311401	3642.578857	-76.794533
958.682373	1541.867920	3530.361328	-14.703798
959.055664	1546.356567	3447.320313	-34.565697
959.428955	1523.913086	3472.008301	-64.371048
959.802063	1604.709717	3532.605713	-34.565697
960.175110	1535.134888	3519.139648	-79.279572
960.548157	1611.442749	3400.189209	-59.402477
960.921143	1593.487915	3492.207520	-7.257348
961.294128	1562.067017	3564.026611	-44.499172
961.666809	1609.198364	3436.098633	27.480429
962.039612	1591.243652	3496.696045	-12.221633
962.412415	1541.867920	3433.854248	-17.186201
962.785095	1512.691406	3503.429199	62.197887
963.157715	1586.754883	3384.478760	-76.794533
963.530151	1593.487915	3550.560547	-24.633909
963.902649	1582.266235	3393.456055	0.188161
964.275146	1532.890503	3532.605713	42.361778
964.647522	1544.112305	3422.632568	24.999798
965.019714	1602.465332	3537.094482	-12.221633
965.392029	1600.221069	3485.474365	-9.739439
965.764160	1575.533203	3388.967285	-17.186201
966.136292	1593.487915	3454.053467	-56.918285
966.508423	1597.976685	3433.854248	-22.151190
966.880371	1559.822754	3346.324707	-46.982700
967.252319	1530.646240	3514.650879	-54.434334
967.624207	1530.646240	3501.184814	-34.565697
967.996094	1597.976685	3420.388184	49.801060
968.367737	1566.555786	3400.189209	-7.257348
968.739441	1445.360962	3319.392578	0.188161
969.111084	1595.732300	3400.189209	24.999798
969.482666	1562.067017	3274.505615	-22.151190
969.854248	1562.067017	3328.369873	-79.279572
970.225586	1573.288818	3400.189209	-44.499172
970.596985	1544.112305	3436.098633	-24.633909
970.968323	1544.112305	3312.659424	-111.594276
971.339661	1519.424438	3346.324707	-27.116732
971.710754	1537.379272	3350.813477	-69.340172
972.081909	1535.134888	3326.125488	57.239410
972.453064	1566.555786	3400.189209	-51.950348
972.824097	1521.668823	3305.926514	-42.015610
973.194946	1557.578369	3382.234375	27.480429
973.565918	1539.623535	3373.256836	-2.293616
973.936768	1546.356567	3393.456055	12.595346
974.307556	1613.687134	3220.641113	-27.116732
974.678284	1476.781860	3213.908203	-74.309593
975.048828	1553.089722	3204.930664	-22.151190
975.419495	1591.243652	3294.704590	-17.186201
975.790039	1586.754883	3236.351563	-34.565697
976.160522	1512.691406	3258.795166	22.519060
976.530884	1517.180054	3243.084717	-76.794533
976.901245	1544.112305	3198.197754	24.999798
977.271606	1519.424438	3189.220215	-81.764587
977.641846	1584.510620	3151.066406	-91.706100
978.012024	1514.935791	3148.822021	-32.082561
978.382019	1595.732300	3137.600342	-34.565697
978.752136	1541.867920	3180.242920	10.114091
979.122131	1566.555786	3276.750000	-54.434334
979.492065	1568.800171	3151.066406	-81.764587
979.861877	1582.266235	3151.066406	-46.982700
980.231689	1544.112305	3094.957520	22.519060
980.601440	1593.487915	3166.776855	-76.794533
980.971191	1597.976685	3148.822021	-12.221633
981.340820	1564.311401	3103.935059	-12.221633
981.710266	1557.578369	2984.984375	5.151267
982.079773	1562.067017	3072.514160	-14.703798
982.449280	1483.514893	3032.115723	-44.499172
982.818604	1548.600952	3018.649658	-34.565697
983.187866	1555.333984	3036.604492	-104.135437
983.557129	1564.311401	3020.894043	-32.082561
983.926331	1606.954102	2955.807861	-71.824898
984.295471	1595.732300	3054.559326	-17.186201
984.664612	1537.379272	2989.473145	-74.309593
985.033569	1627.153198	2915.409668	-32.082561
985.402527	1539.623535	2946.830566	-54.434334
985.771362	1633.886230	2958.052246	-56.918285
986.140259	1571.044434	2717.906982	-91.706100
986.508911	1649.596680	2946.830566	-66.855560
986.877625	1559.822754	2899.699219	-74.309593
987.246277	1532.890503	2949.074951	-17.186201
987.614929	1470.048706	2852.567871	-37.048943
987.983459	1577.777466	2807.680908	22.519060
988.351807	1568.800171	2803.192139	-42.015610
988.720215	1508.202637	2886.233154	-49.466473
989.088623	1604.709717	2879.500000	7.632731
989.456909	1602.465332	2872.767090	-12.221633
989.825012	1517.180054	2762.793945	-24.633909
990.193115	1559.822754	2843.590576	-37.048943
990.561279	1530.646240	2767.282715	-39.532154
990.929321	1526.157471	2765.038330	-22.151190
991.297302	1562.067017	2704.440918	-61.886776
991.665100	1586.754883	2756.060791	-27.116732
992.033020	1562.067017	2787.481689	-29.599525
992.400818	1532.890503	2742.594727	-96.677574
992.768494	1577.777466	2863.789551	-12.221633
993.136047	1593.487915	2726.884277	5.151267
993.503723	1537.379272	2729.128662	-104.135437
993.871277	1550.845337	2868.278320	-29.599525
994.238770	1577.777466	2614.666748	-59.402477
994.606140	1559.822754	2679.752930	-71.824898
994.973450	1633.886230	2744.839111	-94.191788
995.340759	1555.333984	2704.440918	-51.950348
995.708008	1595.732300	2699.952148	15.076364
996.075195	1566.555786	2668.531250	-64.371048
996.442200	1539.623535	2679.752930	-109.107841
996.809265	1575.533203	2614.666748	-14.703798
997.176270	1611.442749	2675.264404	-39.532154
997.543152	1573.288818	2563.046875	2.669834
997.910095	1562.067017	2623.644287	-27.116732
998.276733	1597.976685	2641.599121	-17.186201
998.643494	1573.288818	2572.024170	32.441250
999.010193	1595.732300	2639.354736	-49.466473
999.376831	1586.754883	2536.114746	-17.186201
999.743286	1548.600952	2572.024170	-46.982700
1000.109802	1530.646240	2547.336426	17.557411
1000.476257	1564.311401	2511.426758	-24.633909
1000.842651	1580.021851	2569.779785	-9.739439
1001.208923	1584.510620	2529.381592	-51.950348
1001.575134	1519.424438	2408.186768	-44.499172
1001.941284	1595.732300	2509.182373	-54.434334
1002.307434	1526.157471	2482.250244	-69.340172
1002.673523	1537.379272	2473.272949	-4.775362
1003.039429	1584.510620	2446.340576	-96.677574
1003.405334	1618.175781	2468.784180	-46.982700
1003.771179	1555.333984	2381.254639	-54.434334
1004.137024	1582.266235	2482.250244	-37.048943
1004.502808	1535.134888	2399.209229	-14.703798
1004.868408	1573.288818	2446.340576	-61.886776
1005.234009	1606.954102	2439.607666	34.921570
1005.599609	1566.555786	2412.675537	-39.532154
1005.965149	1546.356567	2374.521484	-27.116732
1006.330444	1566.555786	2349.833740	-22.151190
1006.695862	1532.890503	2329.634521	-86.735199
1007.061218	1571.044434	2282.503174	-39.532154
1007.426453	1544.112305	2376.765869	-49.466473
1007.791626	1611.442749	2390.231934	24.999798
1008.156677	1467.804443	2334.123291	-14.703798
1008.521729	1586.754883	2367.788330	-61.886776
1008.886780	1546.356567	2340.856201	-14.703798
1009.251709	1564.311401	2316.168457	-64.371048
1009.616577	1593.487915	2300.458008	-14.703798
1009.981384	1622.664551	2291.480469	-42.015610
1010.346130	1566.555786	2392.476318	-51.950348
1010.710754	1584.510620	2320.657227	-22.151190
1011.075439	1588.999268	2300.458008	-27.116732
1011.439941	1539.623535	2325.145752	-59.402477
1011.804443	1555.333984	2327.390137	7.632731
1012.168884	1651.841064	2313.924072	-37.048943
1012.533325	1532.890503	2282.503174	-14.703798
1012.897522	1519.424438	2239.860596	-2.293616
1013.261780	1530.646240	2170.285645	-51.950348
1013.626038	1562.067017	2260.059570	10.114091
1013.990112	1571.044434	2242.104980	-49.466473
1014.354187	1548.600952	2159.063965	-9.739439
1014.718140	1602.465332	2177.018799	-99.163330
1015.082153	1573.288818	2208.439697	-14.703798
1015.446045	1615.931396	2206.195313	-84.249840
1015.809937	1571.044434	2235.371826	-76.794533
1016.173523	1555.333984	2145.597900	-27.116732
1016.537170	1505.958374	2203.950928	-44.499172
1016.900879	1559.822754	2192.729248	-39.532154
1017.264404	1595.732300	2105.199707	-51.950348
1017.627991	1615.931396	2127.643066	15.076364
1017.991333	1575.533203	2145.597900	-59.402477
1018.354675	1564.311401	2127.643066	29.960958
1018.718018	1539.623535	2114.177002	-19.668711
1019.081299	1494.736572	2116.421387	-49.466473
1019.444397	1591.243652	2127.643066	-29.599525
1019.807495	1597.976685	2134.376221	-7.257348
1020.170593	1602.465332	2194.973633	-61.886776
1020.533691	1521.668823	2152.330811	-71.824898
1020.896606	1568.800171	2102.955322	-39.532154
1021.259460	1580.021851	2098.466553	-32.082561
1021.622253	1600.221069	2087.244873	-44.499172
1021.985046	1514.935791	2051.335205	-42.015610
1022.347778	1588.999268	2058.068359	-17.186201
1022.710327	1535.134888	2203.950928	-71.824898
1023.072876	1609.198364	2010.936890	-32.082561
1023.435364	1568.800171	2055.823975	37.401791
1023.797852	1604.709717	2085.000488	-14.703798
1024.160278	1523.913086	2049.090820	5.151267
1024.522461	1613.687134	2085.000488	-54.434334
1024.884766	1591.243652	2125.398682	-91.706100
1025.246948	1636.130615	2071.534424	-66.855560
1025.609131	1571.044434	2127.643066	-29.599525
1025.971069	1566.555786	2046.846558	22.519060
1026.333130	1611.442749	1984.004761	-7.257348
1026.694946	1588.999268	2015.425659	-46.982700
1027.056885	1620.420166	1939.117798	5.151267
1027.418823	1622.664551	1999.715210	-56.918285
1027.780396	1514.935791	1995.226440	-39.532154
1028.142090	1568.800171	1957.072510	7.632731
1028.503784	1562.067017	2001.959473	-64.371048
1028.865479	1557.578369	2017.669922	47.321491
1029.226807	1602.465332	1907.696899	-42.015610
1029.588135	1546.356567	1959.316895	39.881771
1029.949707	1546.356567	1939.117798	-39.532154
1030.310913	1593.487915	1918.918579	22.519060
1030.672241	1591.243652	1945.850830	-12.221633
1031.033325	1557.578369	1936.873413	-39.532154
1031.394531	1604.709717	1923.407349	42.361778
1031.755493	1514.935791	1932.384644	-17.186201
1032.116577	1514.935791	1907.696899	0.188161
1032.477417	1544.112305	1880.764648	5.151267
1032.838257	1514.935791	1988.493408	-22.151190
1033.199097	1546.356567	2004.203857	-64.371048
1033.559937	1611.442749	1957.072510	-61.886776
1033.920654	1591.243652	1898.719482	-12.221633
1034.281128	1571.044434	1900.963867	-22.151190
1034.641724	1600.221069	1842.610718	24.999798
1035.002197	1577.777466	1858.321167	20.038357
1035.362671	1586.754883	1894.230713	-17.186201
1035.722900	1564.311401	1847.099365	-114.080811
1036.083252	1593.487915	1898.719482	-56.918285
1036.443481	1602.465332	1853.832520	5.151267
1036.803711	1566.555786	1811.189819	-34.565697
1037.163940	1532.890503	1833.633301	-4.775362
1037.523804	1517.180054	1858.321167	-32.082561
1037.883789	1597.976685	1822.411621	-7.257348
1038.243774	1586.754883	1838.122070	-27.116732
1038.603638	1550.845337	1889.742065	-51.950348
1038.963257	1535.134888	1856.076782	-17.186201
1039.323120	1510.447021	1833.633301	-71.824898
1039.682861	1535.134888	1885.253418	-66.855560
>>>>>End Processed Spectral Data<<<<<
